timestamps,eeg_1,eeg_2,eeg_3,eeg_4
1755830978.8391562,77.1484375,-39.55078125,-716.30859375,-5.859375
1755830978.8439736,97.65625,21.97265625,-684.08203125,21.484375
1755830978.8487911,114.74609375,51.26953125,-538.57421875,61.5234375
1755830978.8536084,90.33203125,-99.609375,-582.51953125,73.73046875
1755830978.8584256,64.453125,-232.421875,-769.53125,121.58203125
1755830978.863243,81.54296875,-388.18359375,-917.96875,235.83984375
1755830978.8680606,110.83984375,-435.546875,-871.09375,311.5234375
1755830978.8728778,90.33203125,-18.06640625,-527.34375,227.05078125
1755830978.877695,53.7109375,138.18359375,-470.703125,55.6640625
1755830978.8825126,68.84765625,-146.97265625,-770.01953125,16.11328125
1755830978.88733,86.42578125,-275.87890625,-790.0390625,48.33984375
1755830978.8921473,81.0546875,46.875,-482.421875,19.04296875
1755830978.8945904,47.8515625,270.99609375,-347.65625,-14.16015625
1755830978.8970337,30.2734375,63.4765625,-572.265625,-43.45703125
1755830978.8994768,82.03125,-681.15234375,-953.125,20.5078125
1755830978.9019198,85.9375,-587.890625,-738.28125,66.89453125
1755830978.904363,53.22265625,344.23828125,-208.0078125,13.671875
1755830978.906806,39.55078125,-101.07421875,-580.56640625,-21.484375
1755830978.9092493,51.7578125,-765.13671875,-956.54296875,6.34765625
1755830978.9116924,77.1484375,-162.109375,-457.51953125,35.64453125
1755830978.9141357,76.66015625,664.55078125,123.53515625,-1.953125
1755830978.9165788,63.4765625,178.22265625,-273.4375,-25.390625
1755830978.9190218,69.3359375,-313.96484375,-674.8046875,9.27734375
1755830978.921465,88.8671875,288.57421875,-178.7109375,61.5234375
1755830978.9240413,93.26171875,802.734375,281.73828125,78.125
1755830978.9266174,95.21484375,104.00390625,-265.625,56.640625
1755830978.9291935,78.125,-371.09375,-722.16796875,46.38671875
1755830978.9317698,103.02734375,299.31640625,-154.78515625,77.63671875
1755830978.9343462,114.74609375,617.67578125,143.06640625,102.5390625
1755830978.9369226,98.6328125,-138.671875,-423.828125,83.49609375
1755830978.939499,86.9140625,-1000.0,-1000.0,63.96484375
1755830978.942075,92.28515625,-225.5859375,-506.34765625,68.359375
1755830978.9446511,132.32421875,710.44921875,239.2578125,113.76953125
1755830978.9472277,142.08984375,71.77734375,-166.50390625,122.0703125
1755830978.9498036,82.03125,-384.765625,-576.66015625,103.515625
1755830978.95238,76.66015625,159.66796875,-195.80078125,125.0
1755830978.957431,131.34765625,719.7265625,395.99609375,169.43359375
1755830978.9624825,131.8359375,119.62890625,150.87890625,176.26953125
1755830978.9675336,107.91015625,-291.015625,-162.109375,111.81640625
1755830978.9725847,119.62890625,283.203125,191.40625,98.6328125
1755830978.977636,177.734375,543.45703125,490.72265625,220.21484375
1755830978.982687,204.58984375,479.00390625,569.82421875,322.265625
1755830978.9877384,163.57421875,292.96875,369.62890625,323.73046875
1755830978.9927895,148.4375,404.78515625,334.9609375,363.28125
1755830978.9978406,218.26171875,396.97265625,368.65234375,482.91015625
1755830979.002892,258.30078125,215.8203125,355.46875,464.84375
1755830979.0079432,228.515625,438.4765625,456.54296875,339.35546875
1755830979.0129943,195.3125,440.4296875,347.65625,326.66015625
1755830979.015489,206.54296875,61.03515625,124.0234375,331.54296875
1755830979.0179842,223.14453125,298.33984375,407.2265625,282.71484375
1755830979.0204792,188.4765625,806.640625,789.55078125,196.77734375
1755830979.0229745,145.99609375,553.22265625,504.8828125,150.390625
1755830979.025469,155.2734375,37.109375,79.1015625,209.9609375
1755830979.027964,179.19921875,40.52734375,177.24609375,295.41015625
1755830979.0304592,164.55078125,466.796875,545.8984375,221.19140625
1755830979.032954,133.30078125,404.296875,380.859375,62.98828125
1755830979.035449,106.93359375,-138.18359375,-137.20703125,1.46484375
1755830979.037944,106.4453125,63.4765625,70.80078125,-9.765625
1755830979.040439,108.88671875,700.1953125,627.44140625,-12.6953125
1755830979.042934,88.37890625,611.81640625,517.08984375,-49.8046875
1755830979.0490077,77.63671875,-442.3828125,-361.81640625,3.90625
1755830979.0550816,81.0546875,-443.84765625,-375.0,144.04296875
1755830979.061155,104.98046875,755.37109375,631.34765625,239.74609375
1755830979.0672293,99.609375,555.6640625,517.08984375,260.25390625
1755830979.073303,73.73046875,-337.40234375,-287.109375,222.16796875
1755830979.0793767,92.7734375,-376.953125,-368.1640625,251.953125
1755830979.0854506,98.6328125,284.1796875,190.4296875,310.546875
1755830979.0915244,81.0546875,278.3203125,160.64453125,316.40625
1755830979.0975983,59.08203125,-576.66015625,-615.234375,263.18359375
1755830979.103672,46.875,-389.16015625,-587.40234375,237.79296875
1755830979.109746,78.61328125,473.6328125,120.1171875,282.71484375
1755830979.1158197,71.77734375,235.3515625,11.23046875,273.92578125
1755830979.11736,20.5078125,-267.578125,-418.45703125,174.31640625
1755830979.1189008,23.92578125,-75.68359375,-399.4140625,156.73828125
1755830979.1204412,77.1484375,206.54296875,-193.84765625,208.49609375
1755830979.121982,81.54296875,252.44140625,-65.91796875,213.37890625
1755830979.1235223,41.015625,69.82421875,-247.55859375,170.8984375
1755830979.125063,22.4609375,-256.8359375,-593.75,125.48828125
1755830979.1266034,38.0859375,-391.11328125,-674.8046875,152.34375
1755830979.1281438,48.828125,-234.86328125,-475.09765625,185.05859375
1755830979.1296844,-3.90625,-39.0625,-379.39453125,133.30078125
1755830979.1312249,-63.4765625,-20.5078125,-503.41796875,67.3828125
1755830979.1327655,-50.78125,44.43359375,-456.54296875,64.94140625
1755830979.134306,-7.32421875,-404.296875,-644.53125,115.72265625
1755830979.1391463,-44.921875,-583.984375,-766.11328125,97.16796875
1755830979.1439865,-103.515625,-26.85546875,-520.5078125,7.8125
1755830979.1488268,-58.10546875,-234.375,-750.0,7.8125
1755830979.1536672,-35.15625,-264.16015625,-678.7109375,43.9453125
1755830979.158507,-79.1015625,42.48046875,-343.26171875,31.25
1755830979.1633475,-105.95703125,-228.515625,-612.79296875,-6.34765625
1755830979.168188,-98.6328125,-558.10546875,-958.49609375,-41.015625
1755830979.1730282,-57.6171875,-909.66796875,-1000.0,-14.16015625
1755830979.1778686,-53.7109375,-488.28125,-659.1796875,1.953125
1755830979.182709,-68.359375,14.6484375,-472.65625,-35.64453125
1755830979.187549,-66.40625,-667.48046875,-963.37890625,-49.8046875
1755830979.1923895,-35.64453125,-653.3203125,-874.51171875,-38.0859375
1755830979.1949406,-41.50390625,187.5,-374.51171875,-20.99609375
1755830979.1974916,-77.63671875,378.90625,-248.53515625,-4.39453125
1755830979.200043,-81.54296875,-359.86328125,-768.06640625,-45.41015625
1755830979.202594,-67.3828125,-471.6796875,-923.828125,-59.5703125
1755830979.2051451,-37.59765625,158.203125,-469.7265625,-11.23046875
1755830979.2076964,-62.98828125,6.8359375,-501.953125,-29.296875
1755830979.2102475,-124.51171875,-623.046875,-875.0,-68.359375
1755830979.2127986,-102.05078125,-654.296875,-991.2109375,-95.703125
1755830979.2153497,-68.84765625,-41.9921875,-663.57421875,-62.5
1755830979.2179008,-72.75390625,315.4296875,-326.171875,-39.55078125
1755830979.220452,-81.54296875,-385.7421875,-681.15234375,-87.890625
1755830979.2230031,-104.00390625,-800.78125,-1000.0,-90.33203125
1755830979.2280016,-108.3984375,-349.609375,-824.70703125,-32.71484375
1755830979.233,-58.10546875,27.83203125,-507.8125,-0.9765625
1755830979.2379985,-59.5703125,-403.3203125,-719.7265625,-41.015625
1755830979.242997,-105.46875,-673.33984375,-1000.0,-79.58984375
1755830979.2479954,-84.47265625,-101.07421875,-737.79296875,-27.34375
1755830979.2529938,-33.203125,-109.86328125,-598.6328125,18.06640625
1755830979.2579925,-60.546875,-666.9921875,-891.6015625,-14.16015625
1755830979.2629907,-105.46875,-613.76953125,-1000.0,-78.125
1755830979.2679892,-73.73046875,-104.4921875,-796.875,-82.03125
1755830979.2729876,-24.4140625,4.8828125,-554.19921875,-23.4375
1755830979.277986,-31.25,36.62109375,-462.890625,-11.23046875
1755830979.2829845,-62.5,32.2265625,-592.28515625,-34.1796875
1755830979.2890527,-44.43359375,-65.4296875,-735.3515625,-31.25
1755830979.2951207,11.71875,-82.51953125,-679.19921875,41.015625
1755830979.301189,20.01953125,127.9296875,-407.71484375,68.84765625
1755830979.307257,-21.97265625,21.97265625,-506.34765625,-12.20703125
1755830979.3133252,-40.0390625,-178.7109375,-815.4296875,-28.80859375
1755830979.3193932,9.27734375,-612.79296875,-966.30859375,35.15625
1755830979.3254614,0.9765625,-586.9140625,-767.578125,44.43359375
1755830979.3315296,-45.8984375,126.953125,-419.43359375,1.953125
1755830979.3375976,-56.15234375,-8.30078125,-712.890625,-23.92578125
1755830979.3436658,-5.859375,-656.25,-1000.0,20.99609375
1755830979.3497338,8.7890625,-510.7421875,-741.2109375,34.1796875
1755830979.355802,-43.9453125,325.68359375,-343.75,-2.9296875
1755830979.3584166,-64.453125,-11.71875,-657.71484375,-27.34375
1755830979.3610313,-36.62109375,-311.03515625,-891.11328125,1.46484375
1755830979.3636458,18.06640625,94.7265625,-561.5234375,49.31640625
1755830979.3662603,30.2734375,486.81640625,-242.1875,15.625
1755830979.368875,-3.90625,68.84765625,-573.2421875,-17.578125
1755830979.3714895,-12.20703125,-629.8828125,-1000.0,12.20703125
1755830979.3741045,26.85546875,-408.69140625,-847.16796875,71.77734375
1755830979.3767188,37.109375,207.51953125,-407.2265625,104.00390625
1755830979.3793335,-10.7421875,106.93359375,-463.37890625,47.36328125
1755830979.381948,-28.3203125,-454.58984375,-947.75390625,-21.97265625
1755830979.3845627,18.06640625,-247.55859375,-819.3359375,-8.7890625
1755830979.3871772,47.8515625,361.81640625,-301.7578125,41.50390625
1755830979.3897393,14.6484375,106.4453125,-432.12890625,30.2734375
1755830979.392301,-34.66796875,-600.09765625,-898.4375,-34.66796875
1755830979.3948634,-42.48046875,-103.02734375,-632.8125,-37.109375
1755830979.3974254,-10.25390625,543.9453125,-99.609375,28.80859375
1755830979.3999877,0.0,125.9765625,-298.33984375,23.92578125
1755830979.4025493,-57.6171875,-635.25390625,-894.04296875,-28.3203125
1755830979.4051113,-90.33203125,-246.09375,-678.22265625,-52.24609375
1755830979.4076734,-72.75390625,378.41796875,-162.59765625,-23.4375
1755830979.4102354,-100.5859375,187.01171875,-157.71484375,-39.0625
1755830979.4127977,-113.28125,-265.625,-519.04296875,-91.796875
1755830979.4153595,-112.79296875,-79.58984375,-512.20703125,-102.05078125
1755830979.4179215,-93.26171875,380.37109375,-133.30078125,-44.921875
1755830979.425352,-53.7109375,-160.64453125,-387.20703125,9.27734375
1755830979.4327826,-90.33203125,-699.70703125,-836.42578125,-20.5078125
1755830979.4402132,-126.953125,-112.3046875,-565.4296875,-97.65625
1755830979.447644,-85.9375,-20.01953125,-485.83984375,-62.98828125
1755830979.4550743,-64.94140625,97.16796875,-294.921875,-7.32421875
1755830979.462505,-85.44921875,35.15625,-302.24609375,-30.2734375
1755830979.4699357,-90.33203125,-304.6875,-642.08984375,-53.7109375
1755830979.4773662,-51.26953125,-283.203125,-677.24609375,-34.66796875
1755830979.484797,-24.90234375,-508.7890625,-731.4453125,5.859375
1755830979.4922276,-55.6640625,-84.9609375,-418.9453125,0.48828125
1755830979.499658,-100.09765625,272.4609375,-308.59375,-51.26953125
1755830979.507089,-108.3984375,-412.109375,-797.36328125,-58.59375
1755830979.5074475,-67.87109375,-458.984375,-755.859375,11.23046875
1755830979.507807,-74.21875,282.2265625,-261.23046875,3.90625
1755830979.5081663,-131.34765625,273.4375,-395.01953125,-62.5
1755830979.5085254,-120.1171875,-505.859375,-880.859375,-61.5234375
1755830979.5088844,-78.125,-642.578125,-829.58984375,-26.85546875
1755830979.5092435,-91.30859375,2.44140625,-439.94140625,-30.76171875
1755830979.509603,-119.140625,-33.69140625,-579.1015625,-36.62109375
1755830979.509962,-116.2109375,-650.390625,-959.47265625,-55.17578125
1755830979.5103211,-80.56640625,-633.30078125,-899.90234375,-41.015625
1755830979.5106804,-66.89453125,249.51171875,-351.5625,29.78515625
1755830979.5110395,-70.80078125,331.54296875,-289.0625,-7.32421875
1755830979.5113988,-82.03125,-415.52734375,-847.16796875,-77.1484375
1755830979.5148506,-102.05078125,-413.0859375,-906.73828125,-61.03515625
1755830979.5183024,-71.2890625,240.72265625,-439.94140625,-19.53125
1755830979.5217545,-40.0390625,161.62109375,-402.34375,-15.625
1755830979.525206,-94.23828125,-542.48046875,-852.5390625,-52.24609375
1755830979.528658,-88.37890625,-644.53125,-1000.0,-62.01171875
1755830979.5321095,-11.23046875,-308.59375,-821.77734375,-4.8828125
1755830979.535561,6.34765625,-127.44140625,-598.14453125,19.04296875
1755830979.5390131,-23.92578125,-659.66796875,-848.6328125,-30.2734375
1755830979.542465,-57.6171875,-979.4921875,-1000.0,-77.1484375
1755830979.5459168,-38.57421875,-130.859375,-676.7578125,-36.1328125
1755830979.5493686,-19.53125,243.65234375,-360.3515625,13.671875
1755830979.5528204,-44.43359375,99.609375,-431.640625,-21.484375
1755830979.5589569,-42.48046875,-56.640625,-690.4296875,-56.640625
1755830979.565093,-47.36328125,24.4140625,-678.22265625,-32.2265625
1755830979.5712297,-22.94921875,-34.1796875,-586.42578125,11.23046875
1755830979.577366,-46.38671875,-85.44921875,-591.796875,-19.04296875
1755830979.5835023,-79.58984375,-151.85546875,-728.02734375,-79.1015625
1755830979.5896387,-55.6640625,-392.578125,-886.71875,-70.3125
1755830979.595775,-34.66796875,-522.4609375,-857.91015625,-17.578125
1755830979.6019113,-31.25,-770.99609375,-918.45703125,-16.11328125
1755830979.6080475,-84.47265625,-151.3671875,-630.37109375,-85.44921875
1755830979.614184,-74.21875,-5.37109375,-619.140625,-101.5625
1755830979.6203203,-18.5546875,-100.5859375,-583.49609375,-62.98828125
1755830979.6264567,-32.2265625,337.890625,-195.3125,-42.48046875
1755830979.628974,-84.9609375,360.83984375,-236.328125,-102.05078125
1755830979.631491,-117.67578125,-74.70703125,-647.4609375,-135.7421875
1755830979.634008,-92.7734375,-230.46875,-684.08203125,-94.23828125
1755830979.6365252,-82.51953125,215.8203125,-237.79296875,-84.9609375
1755830979.6390424,-106.93359375,365.234375,-152.34375,-114.2578125
1755830979.6415594,-104.00390625,-365.234375,-735.3515625,-120.60546875
1755830979.6440763,-87.890625,-815.91796875,-982.421875,-95.703125
1755830979.6465936,-56.15234375,-106.4453125,-405.76171875,-87.890625
1755830979.6491108,-35.15625,194.82421875,-172.8515625,-100.09765625
1755830979.6516278,-84.9609375,-545.8984375,-729.4921875,-111.81640625
1755830979.6541448,-88.37890625,-753.90625,-924.8046875,-108.88671875
1755830979.656662,-37.109375,-42.48046875,-400.390625,-55.6640625
1755830979.6617177,-30.2734375,360.3515625,-4.39453125,-60.546875
1755830979.666773,-48.33984375,-309.08203125,-465.33203125,-91.796875
1755830979.671829,-71.2890625,-939.94140625,-1000.0,-105.46875
1755830979.676885,-67.3828125,-261.23046875,-553.7109375,-96.19140625
1755830979.6819403,-5.859375,193.84765625,-154.78515625,-60.546875
1755830979.686996,-50.29296875,-546.38671875,-655.2734375,-91.30859375
1755830979.692052,-100.5859375,-955.078125,-1000.0,-123.53515625
1755830979.6971076,-47.36328125,-337.40234375,-696.77734375,-117.67578125
1755830979.7021632,-24.90234375,256.8359375,-136.23046875,-101.07421875
1755830979.707219,-44.921875,-200.68359375,-419.43359375,-113.28125
1755830979.7122746,-87.890625,-584.9609375,-819.82421875,-142.08984375
1755830979.7173302,-81.0546875,-416.015625,-709.47265625,-142.08984375
1755830979.7198856,-46.875,-333.49609375,-528.3203125,-98.14453125
1755830979.722441,-66.40625,-300.78125,-457.03125,-96.19140625
1755830979.7249963,-80.078125,-434.5703125,-699.21875,-162.109375
1755830979.7275517,-61.5234375,-341.30859375,-710.9375,-162.109375
1755830979.730107,-28.3203125,-157.2265625,-460.44921875,-99.609375
1755830979.7326624,-33.203125,-354.98046875,-511.71875,-82.03125
1755830979.7352178,-75.68359375,-455.56640625,-651.85546875,-132.8125
1755830979.7377732,-84.9609375,-252.44140625,-651.3671875,-167.96875
1755830979.7403286,-16.11328125,-506.8359375,-798.33984375,-120.60546875
1755830979.742884,10.25390625,-537.109375,-695.80078125,-82.03125
1755830979.7454393,-59.5703125,-226.5625,-522.94921875,-146.97265625
1755830979.747995,-83.984375,-310.05859375,-698.73046875,-163.57421875
1755830979.7517316,-44.43359375,-638.18359375,-882.32421875,-77.1484375
1755830979.7554686,-33.203125,-641.11328125,-704.1015625,-42.96875
1755830979.7592056,-67.87109375,-207.03125,-302.734375,-86.42578125
1755830979.7629426,-98.6328125,-441.89453125,-563.4765625,-124.51171875
1755830979.7666795,-89.84375,-813.96484375,-905.2734375,-109.375
1755830979.7704165,-35.64453125,-725.5859375,-640.13671875,-84.9609375
1755830979.7741537,-60.546875,-303.7109375,-124.0234375,-93.75
1755830979.7778904,-83.49609375,-277.34375,-64.453125,-106.93359375
1755830979.7816274,-67.87109375,-776.3671875,-604.4921875,-107.421875
1755830979.7853644,-58.10546875,-706.54296875,-529.296875,-72.75390625
1755830979.7891014,-50.29296875,-60.546875,280.2734375,-62.98828125
1755830979.7928383,-94.7265625,-225.09765625,196.77734375,-120.60546875
1755830979.796564,-145.01953125,-593.75,-129.8828125,-211.42578125
1755830979.80029,-110.3515625,-259.27734375,134.27734375,-189.453125
1755830979.804016,-77.1484375,271.484375,658.69140625,-127.44140625
1755830979.8077416,-98.14453125,60.546875,572.265625,-135.25390625
1755830979.8114674,-121.09375,-509.27734375,143.06640625,-150.390625
1755830979.8151932,-80.56640625,-569.3359375,175.29296875,-139.16015625
1755830979.8189192,-56.640625,-252.9296875,543.9453125,-120.60546875
1755830979.822645,-89.35546875,-266.11328125,648.92578125,-123.53515625
1755830979.8263707,-88.8671875,-867.67578125,-201.171875,-149.4140625
1755830979.8300967,-55.6640625,-740.72265625,-225.09765625,-154.78515625
1755830979.8338225,-28.3203125,166.9921875,853.515625,-136.71875
1755830979.8375485,-57.12890625,151.3671875,924.8046875,-133.30078125
1755830979.8413346,-91.796875,-219.23828125,651.3671875,-180.6640625
1755830979.845121,-93.75,-161.62109375,620.60546875,-202.1484375
1755830979.848907,-77.63671875,92.28515625,829.1015625,-154.296875
1755830979.852693,-49.8046875,129.39453125,966.796875,-134.27734375
1755830979.8564796,-58.59375,-81.0546875,881.8359375,-160.15625
1755830979.860266,-86.42578125,-463.37890625,540.0390625,-181.640625
1755830979.8640523,-91.30859375,-393.5546875,660.15625,-154.296875
1755830979.8678386,-28.80859375,-469.23828125,718.26171875,-94.7265625
1755830979.871625,-49.8046875,-868.65234375,426.26953125,-120.60546875
1755830979.875411,-123.53515625,-383.30078125,678.22265625,-187.5
1755830979.8791974,-77.63671875,-21.484375,893.06640625,-163.0859375
1755830979.8829837,-26.3671875,-34.66796875,950.1953125,-93.26171875
1755830979.8879294,-48.33984375,77.63671875,962.40234375,-99.609375
1755830979.8928754,-83.0078125,80.56640625,960.44921875,-182.6171875
1755830979.8978212,-67.87109375,-96.19140625,944.3359375,-162.59765625
1755830979.9027672,-31.73828125,-145.5078125,936.5234375,-108.3984375
1755830979.907713,-51.7578125,169.921875,973.14453125,-130.859375
1755830979.9126587,-98.14453125,-44.43359375,897.4609375,-151.85546875
1755830979.9176047,-95.703125,-518.06640625,673.33984375,-172.36328125
1755830979.9225504,-23.4375,-683.10546875,480.95703125,-122.55859375
1755830979.9274964,-22.4609375,-170.8984375,765.625,-84.47265625
1755830979.9324422,-61.03515625,299.8046875,999.51171875,-146.97265625
1755830979.9373882,-76.171875,-287.59765625,547.8515625,-163.57421875
1755830979.942334,-44.921875,-534.66796875,313.4765625,-104.00390625
1755830979.945971,-13.671875,134.27734375,781.73828125,-70.80078125
1755830979.9496083,-43.45703125,481.4453125,958.0078125,-110.83984375
1755830979.9532454,-69.82421875,-319.82421875,217.28515625,-139.16015625
1755830979.9568827,-46.875,-679.19921875,-122.55859375,-101.5625
1755830979.9605198,-16.11328125,72.265625,432.6171875,-62.5
1755830979.964157,-32.71484375,109.375,506.34765625,-109.375
1755830979.9677942,-62.5,-621.09375,-213.8671875,-186.5234375
1755830979.9714313,-63.4765625,-725.09765625,-543.9453125,-163.0859375
1755830979.9750686,-26.85546875,169.921875,256.34765625,-117.1875
1755830979.9787056,-14.16015625,479.00390625,538.0859375,-125.9765625
1755830979.982343,-69.3359375,-372.55859375,-242.1875,-162.109375
1755830979.98598,-71.77734375,-780.2734375,-699.21875,-171.38671875
1755830979.9897676,-26.85546875,-39.0625,-157.2265625,-139.6484375
1755830979.993555,-30.2734375,303.22265625,225.5859375,-126.46484375
1755830979.9973426,-56.15234375,-173.33984375,-150.87890625,-157.2265625
1755830980.00113,-63.4765625,-367.1875,-506.8359375,-183.10546875
1755830980.0049176,-59.5703125,-219.7265625,-426.7578125,-164.55078125
1755830980.0087051,-98.14453125,-132.32421875,-193.84765625,-134.27734375
1755830980.012493,-141.11328125,-609.86328125,-583.49609375,-128.41796875
1755830980.0162804,-204.58984375,-797.8515625,-906.25,-177.734375
1755830980.020068,-238.28125,-5.859375,-351.07421875,-192.3828125
1755830980.0238554,-214.84375,82.03125,-167.96875,-132.32421875
1755830980.027643,-242.1875,-91.796875,-252.9296875,-143.06640625
1755830980.0314305,-268.06640625,-15.13671875,-291.9921875,-204.58984375
1755830980.0363865,-272.94921875,-44.921875,-396.484375,-246.58203125
1755830980.0413425,-251.953125,-120.1171875,-394.04296875,-247.55859375
1755830980.0462985,-256.8359375,71.2890625,-171.38671875,-268.5546875
1755830980.0512545,-277.83203125,128.90625,-219.7265625,-334.9609375
1755830980.0562105,-245.1171875,-152.34375,-497.55859375,-350.5859375
1755830980.0611663,-182.12890625,-533.203125,-718.75,-286.1328125
1755830980.0661223,-185.05859375,-538.57421875,-611.328125,-268.06640625
1755830980.0710783,-237.3046875,-122.0703125,-352.05078125,-332.51953125
1755830980.076034,-239.2578125,-105.46875,-512.20703125,-349.12109375
1755830980.08099,-179.6875,-681.15234375,-874.51171875,-280.76171875
1755830980.085946,-148.4375,-590.33203125,-707.51953125,-244.62890625
1755830980.090902,-178.7109375,193.84765625,-208.984375,-253.90625
1755830980.093634,-189.453125,-120.60546875,-543.45703125,-276.3671875
1755830980.0963657,-169.43359375,-451.66015625,-815.4296875,-259.765625
1755830980.0990975,-146.484375,-12.6953125,-400.87890625,-201.171875
1755830980.1018293,-160.15625,376.46484375,-74.70703125,-179.6875
1755830980.104561,-184.5703125,-11.71875,-443.84765625,-219.7265625
1755830980.1072931,-202.1484375,-724.609375,-970.21484375,-241.69921875
1755830980.110025,-277.83203125,-363.28125,-646.484375,-213.37890625
1755830980.1127567,-384.765625,259.27734375,-147.4609375,-223.14453125
1755830980.1154883,-454.58984375,-300.29296875,-564.94140625,-282.71484375
1755830980.1182203,-503.90625,-892.578125,-1000.0,-359.86328125
1755830980.120952,-538.0859375,-353.02734375,-708.0078125,-354.98046875
1755830980.123684,-505.859375,331.54296875,-187.5,-315.91796875
1755830980.1273785,-497.55859375,-179.19921875,-471.19140625,-341.796875
1755830980.131073,-541.50390625,-805.6640625,-972.16796875,-387.20703125
1755830980.1347673,-536.62109375,-287.59765625,-722.16796875,-403.3203125
1755830980.1384618,-486.81640625,247.55859375,-275.87890625,-370.1171875
1755830980.1421564,-478.515625,-45.8984375,-422.8515625,-364.2578125
1755830980.145851,-489.2578125,-678.22265625,-950.68359375,-374.0234375
1755830980.1495452,-443.359375,-531.73828125,-924.31640625,-325.1953125
1755830980.1532395,-378.90625,173.33984375,-367.67578125,-264.6484375
1755830980.1569345,-381.34765625,-167.48046875,-463.37890625,-270.99609375
1755830980.1606288,-414.0625,-778.80859375,-926.26953125,-332.51953125
1755830980.164323,-406.73828125,-353.02734375,-756.34765625,-344.7265625
1755830980.1680176,-352.5390625,-197.75390625,-590.33203125,-303.22265625
1755830980.1717331,-341.796875,-182.12890625,-509.765625,-279.296875
1755830980.175449,-360.3515625,-148.4375,-585.9375,-324.70703125
1755830980.1791642,-359.375,-136.71875,-692.3828125,-364.74609375
1755830980.1828797,-303.7109375,-61.03515625,-566.89453125,-320.3125
1755830980.1865952,-247.0703125,159.66796875,-285.64453125,-287.59765625
1755830980.190311,-254.39453125,-41.50390625,-426.7578125,-316.89453125
1755830980.1940265,-307.12890625,-234.375,-678.22265625,-363.76953125
1755830980.197742,-284.1796875,-148.92578125,-667.96875,-357.421875
1755830980.2014575,-222.16796875,-396.484375,-733.88671875,-289.55078125
1755830980.205173,-274.90234375,-46.875,-480.95703125,-300.29296875
1755830980.2088883,-291.015625,111.81640625,-469.7265625,-365.72265625
1755830980.212604,-229.00390625,-396.97265625,-909.1796875,-317.87109375
1755830980.2164638,-192.87109375,-140.625,-654.78515625,-251.46484375
1755830980.2203236,-182.12890625,293.45703125,-222.16796875,-247.0703125
1755830980.224183,-201.66015625,-93.26171875,-567.3828125,-272.4609375
1755830980.228043,-194.82421875,-712.890625,-989.2578125,-283.203125
1755830980.2319028,-166.50390625,-514.6484375,-762.20703125,-258.7890625
1755830980.2357626,-159.66796875,83.984375,-342.7734375,-245.1171875
1755830980.2396226,-215.33203125,-61.03515625,-502.44140625,-263.18359375
1755830980.2434824,-224.609375,-712.40234375,-938.96484375,-269.53125
1755830980.247342,-160.64453125,-690.91796875,-858.88671875,-231.93359375
1755830980.251202,-132.32421875,338.8671875,-200.68359375,-200.68359375
1755830980.2550616,-144.04296875,445.3125,-112.3046875,-202.63671875
1755830980.2589214,-166.50390625,-190.91796875,-680.6640625,-248.046875
1755830980.2625575,-154.296875,-178.22265625,-719.7265625,-254.8828125
1755830980.2661934,-105.95703125,348.14453125,-239.74609375,-205.56640625
1755830980.2698295,-125.0,311.5234375,-231.4453125,-208.0078125
1755830980.2734654,-186.5234375,-195.80078125,-662.59765625,-258.30078125
1755830980.2771015,-177.734375,-343.75,-805.17578125,-253.90625
1755830980.2807374,-125.0,-227.5390625,-637.20703125,-185.546875
1755830980.2843735,-93.26171875,-43.9453125,-423.33984375,-179.6875
1755830980.2880096,-117.1875,-647.4609375,-787.109375,-215.33203125
1755830980.2916455,-144.04296875,-800.78125,-969.23828125,-243.65234375
1755830980.2952816,-102.5390625,90.33203125,-425.29296875,-202.1484375
1755830980.2989175,-81.0546875,278.80859375,-185.546875,-136.71875
1755830980.3025537,-103.515625,43.45703125,-366.69921875,-157.71484375
1755830980.306341,-87.40234375,19.53125,-507.8125,-201.66015625
1755830980.3101282,-51.7578125,132.32421875,-410.64453125,-175.29296875
1755830980.3139153,-50.29296875,160.64453125,-242.1875,-110.3515625
1755830980.3177023,-81.0546875,187.01171875,-228.02734375,-121.09375
1755830980.3214898,-47.36328125,151.3671875,-379.8828125,-158.203125
1755830980.325277,48.828125,-150.87890625,-602.05078125,-137.6953125
1755830980.3290644,141.6015625,-484.86328125,-729.98046875,-72.75390625
1755830980.3328516,160.64453125,-567.3828125,-732.91015625,-84.9609375
1755830980.336639,131.8359375,-141.11328125,-522.94921875,-154.296875
1755830980.340426,166.9921875,-94.7265625,-628.41796875,-154.78515625
1755830980.3442132,215.33203125,-195.3125,-627.9296875,-91.30859375
1755830980.3480003,213.37890625,248.046875,-160.15625,-62.5
1755830980.354082,203.125,481.93359375,-57.12890625,-112.3046875
1755830980.3601637,190.4296875,-19.53125,-572.75390625,-150.87890625
1755830980.3662448,193.84765625,-94.7265625,-587.40234375,-95.21484375
1755830980.3723264,224.609375,360.3515625,-175.29296875,-63.96484375
1755830980.378408,202.63671875,406.73828125,-147.94921875,-94.7265625
1755830980.3844893,189.453125,-198.73046875,-640.625,-107.421875
1755830980.3905706,199.70703125,-755.859375,-949.70703125,-112.3046875
1755830980.3966522,210.9375,-175.78125,-500.9765625,-75.68359375
1755830980.4027338,208.984375,494.62890625,-118.65234375,-89.84375
1755830980.4088151,166.015625,-11.71875,-548.828125,-137.6953125
1755830980.4148965,162.59765625,-459.9609375,-895.5078125,-110.83984375
1755830980.420978,218.75,7.8125,-488.28125,-54.6875
1755830980.424726,213.37890625,573.73046875,-79.1015625,-75.68359375
1755830980.4284742,150.390625,-27.34375,-525.390625,-131.34765625
1755830980.432222,166.9921875,-635.25390625,-948.73046875,-120.1171875
1755830980.43597,224.609375,33.203125,-524.4140625,-62.01171875
1755830980.4397182,238.76953125,376.46484375,-273.4375,-25.390625
1755830980.4434662,208.984375,-375.0,-687.5,-43.45703125
1755830980.447214,170.41015625,-797.8515625,-978.02734375,-77.1484375
1755830980.4509623,177.734375,6.34765625,-538.0859375,-65.91796875
1755830980.4547102,208.984375,538.0859375,-72.265625,-20.99609375
1755830980.4584582,166.9921875,223.14453125,-312.01171875,-49.31640625
1755830980.4622064,131.8359375,-100.09765625,-691.40625,-105.46875
1755830980.4659543,163.57421875,174.8046875,-546.875,-81.0546875
1755830980.4687405,190.91796875,512.20703125,-157.71484375,-38.0859375
1755830980.4715266,173.33984375,194.82421875,-288.0859375,-71.77734375
1755830980.4743128,83.984375,-70.80078125,-604.98046875,-148.92578125
1755830980.477099,95.703125,123.53515625,-570.80078125,-153.80859375
1755830980.479885,171.38671875,300.29296875,-369.62890625,-65.4296875
1755830980.4826713,144.53125,-313.96484375,-656.25,-34.66796875
1755830980.4854577,103.02734375,-525.87890625,-882.32421875,-117.1875
1755830980.4882438,89.84375,32.71484375,-661.62109375,-149.90234375
1755830980.49103,127.44140625,-55.17578125,-667.96875,-92.7734375
1755830980.493816,142.08984375,-149.90234375,-630.37109375,-53.22265625
1755830980.4966023,87.40234375,98.6328125,-464.84375,-125.0
1755830980.4993885,66.89453125,124.0234375,-521.97265625,-136.71875
1755830980.5042567,118.65234375,-199.70703125,-772.94921875,-64.94140625
1755830980.5091248,133.7890625,-10.25390625,-508.7890625,-55.17578125
1755830980.513993,75.1953125,395.5078125,-224.609375,-93.26171875
1755830980.518861,56.640625,131.8359375,-504.8828125,-124.0234375
1755830980.523729,89.84375,-393.5546875,-834.47265625,-91.796875
1755830980.5285974,88.8671875,-376.953125,-720.21484375,-68.359375
1755830980.5334656,73.73046875,18.06640625,-404.296875,-83.984375
1755830980.538334,25.390625,102.05078125,-506.34765625,-131.8359375
1755830980.543202,20.99609375,-505.859375,-862.3046875,-151.85546875
1755830980.5480702,63.4765625,-824.70703125,-906.73828125,-92.7734375
1755830980.5529382,41.015625,188.96484375,-285.64453125,-84.9609375
1755830980.5578065,6.8359375,282.2265625,-289.55078125,-116.2109375
1755830980.5615048,3.90625,-493.1640625,-890.625,-115.234375
1755830980.5652034,2.44140625,-229.4921875,-644.53125,-67.87109375
1755830980.568902,-4.8828125,515.13671875,-25.390625,-128.90625
1755830980.5726004,-46.38671875,330.56640625,-199.70703125,-292.96875
1755830980.5762987,-110.3515625,-305.6640625,-753.41796875,-354.00390625
1755830980.5799973,-91.30859375,-358.88671875,-768.5546875,-340.8203125
1755830980.583696,-42.48046875,184.5703125,-259.27734375,-299.8046875
1755830980.5873942,-45.41015625,86.42578125,-307.6171875,-299.31640625
1755830980.5910926,-75.1953125,-455.078125,-823.73046875,-357.91015625
1755830980.5947912,-79.1015625,-202.1484375,-743.1640625,-356.4453125
1755830980.5984898,-40.52734375,333.49609375,-283.69140625,-307.6171875
1755830980.602188,-41.50390625,248.53515625,-251.953125,-307.12890625
1755830980.604758,-95.21484375,-785.64453125,-905.76171875,-310.05859375
1755830980.607328,-79.1015625,-625.0,-903.80859375,-314.94140625
1755830980.609898,-17.08984375,284.66796875,-334.9609375,-272.4609375
1755830980.6124678,-0.48828125,297.36328125,-217.7734375,-244.140625
1755830980.6150377,-29.78515625,-15.13671875,-456.54296875,-290.0390625
1755830980.6176076,-39.55078125,-291.50390625,-739.2578125,-289.55078125
1755830980.6201775,23.92578125,-224.609375,-663.0859375,-229.00390625
1755830980.6227477,43.45703125,-83.984375,-461.9140625,-187.01171875
1755830980.6253176,-7.8125,10.25390625,-456.0546875,-221.19140625
1755830980.6278875,-29.296875,1.46484375,-553.22265625,-259.27734375
1755830980.6304574,12.20703125,-175.78125,-669.921875,-200.68359375
1755830980.6330273,34.1796875,-632.8125,-845.21484375,-118.1640625
1755830980.6367831,-7.32421875,-681.640625,-844.7265625,-157.71484375
1755830980.6405392,-38.57421875,-33.203125,-582.03125,-203.125
1755830980.644295,1.46484375,-86.9140625,-645.01953125,-151.3671875
1755830980.6480508,65.4296875,-81.0546875,-540.0390625,-111.328125
1755830980.6518066,57.12890625,265.13671875,-252.44140625,-116.2109375
1755830980.6555624,2.9296875,-39.55078125,-509.27734375,-149.4140625
1755830980.6593184,-4.8828125,-516.6015625,-902.83203125,-161.1328125
1755830980.6630745,26.3671875,-727.5390625,-939.94140625,-98.14453125
1755830980.66683,22.94921875,-155.2734375,-478.515625,-64.94140625
1755830980.670586,1.953125,309.5703125,-306.640625,-107.91015625
1755830980.674342,4.39453125,-394.04296875,-825.1953125,-119.62890625
1755830980.6780975,65.4296875,-516.11328125,-810.05859375,-49.8046875
1755830980.68315,91.796875,272.4609375,-219.23828125,-24.90234375
1755830980.6882024,50.29296875,208.49609375,-277.83203125,-81.54296875
1755830980.693255,56.15234375,-620.1171875,-860.3515625,-107.91015625
1755830980.6983073,55.6640625,-634.27734375,-858.3984375,-106.4453125
1755830980.7033596,65.4296875,201.171875,-302.734375,-67.87109375
1755830980.708412,81.54296875,123.046875,-317.3828125,-28.3203125
1755830980.7134645,45.41015625,-650.87890625,-821.77734375,-58.10546875
1755830980.7185166,57.12890625,-762.20703125,-904.78515625,-41.9921875
1755830980.723569,77.63671875,108.88671875,-369.140625,5.859375
1755830980.7286215,70.3125,469.7265625,-51.7578125,10.25390625
1755830980.7336738,48.33984375,-208.0078125,-575.1953125,-40.0390625
1755830980.738726,50.29296875,-464.35546875,-893.5546875,-52.24609375
1755830980.7422354,81.0546875,78.61328125,-482.421875,-10.25390625
1755830980.7457447,69.3359375,368.1640625,-123.53515625,24.4140625
1755830980.749254,0.0,132.8125,-304.19921875,-34.66796875
1755830980.7527633,1.46484375,-233.3984375,-704.58984375,-60.05859375
1755830980.7562726,58.10546875,-302.24609375,-728.02734375,-1.953125
1755830980.7597818,62.98828125,-180.6640625,-514.16015625,38.0859375
1755830980.7632911,60.05859375,-350.09765625,-628.41796875,41.50390625
1755830980.7668004,19.53125,-323.2421875,-726.07421875,-16.6015625
1755830980.7703097,5.37109375,80.56640625,-444.82421875,-4.8828125
1755830980.773819,62.01171875,252.9296875,-201.66015625,55.17578125
1755830980.7773285,36.1328125,-458.0078125,-653.80859375,47.8515625
1755830980.7808375,-24.4140625,-456.0546875,-782.2265625,-24.4140625
1755830980.7847245,16.11328125,126.46484375,-459.47265625,-21.97265625
1755830980.7886112,51.7578125,73.73046875,-377.44140625,60.05859375
1755830980.792498,49.31640625,164.55078125,-230.46875,49.31640625
1755830980.796385,32.2265625,198.2421875,-309.08203125,-3.90625
1755830980.8002715,25.390625,6.34765625,-522.4609375,2.44140625
1755830980.8041587,50.29296875,-355.95703125,-677.734375,55.17578125
1755830980.8080456,65.4296875,-268.5546875,-490.72265625,61.5234375
1755830980.8119323,35.15625,70.80078125,-289.0625,11.71875
1755830980.8158193,11.23046875,-19.53125,-526.85546875,-7.32421875
1755830980.8197062,45.41015625,-547.36328125,-853.02734375,26.85546875
1755830980.823593,65.91796875,-485.83984375,-672.36328125,68.359375
1755830980.8274798,41.9921875,377.9296875,-85.9375,48.828125
1755830980.8324656,6.34765625,107.91015625,-386.23046875,7.8125
1755830980.8374517,-3.41796875,-423.33984375,-806.640625,-3.41796875
1755830980.8424373,46.875,23.92578125,-399.90234375,52.24609375
1755830980.847423,44.921875,489.2578125,-21.484375,61.03515625
1755830980.852409,-8.7890625,20.5078125,-415.52734375,16.11328125
1755830980.8573947,3.41796875,-702.1484375,-916.015625,29.78515625
1755830980.8623805,29.296875,-413.57421875,-644.53125,70.80078125
1755830980.867366,45.41015625,481.4453125,-11.71875,71.77734375
1755830980.872352,27.83203125,228.02734375,-257.8125,32.2265625
1755830980.8773377,7.8125,-754.8828125,-941.89453125,10.25390625
1755830980.8823235,26.85546875,-516.11328125,-782.71484375,36.1328125
1755830980.8873093,41.50390625,473.14453125,-83.49609375,71.2890625
1755830980.8898864,47.8515625,130.37109375,-300.29296875,44.921875
1755830980.8924634,19.53125,-554.19921875,-876.46484375,5.859375
1755830980.8950405,12.20703125,-47.8515625,-534.1796875,29.78515625
1755830980.8976176,59.08203125,527.34375,-27.83203125,75.1953125
1755830980.9001946,68.359375,292.96875,-174.8046875,60.546875
1755830980.9027717,49.8046875,-383.7890625,-721.6796875,30.76171875
1755830980.9053483,68.359375,-300.78125,-710.9375,50.78125
1755830980.9079256,104.00390625,390.625,-135.25390625,86.9140625
1755830980.910503,87.890625,39.0625,-325.68359375,63.96484375
1755830980.9130795,32.2265625,-422.36328125,-764.6484375,12.6953125
1755830980.9156568,26.85546875,-105.95703125,-637.20703125,20.99609375
1755830980.918234,86.42578125,222.16796875,-357.421875,80.56640625
1755830980.9220276,93.75,-267.08984375,-554.6875,108.3984375
1755830980.9258215,56.15234375,-704.1015625,-864.2578125,48.828125
1755830980.9296155,44.43359375,-78.125,-606.93359375,14.16015625
1755830980.9334092,78.125,44.921875,-524.90234375,76.66015625
1755830980.937203,84.9609375,-12.20703125,-424.31640625,97.16796875
1755830980.940997,50.78125,-237.79296875,-565.4296875,56.640625
1755830980.9447908,6.8359375,-322.75390625,-729.00390625,-0.48828125
1755830980.9485846,17.08984375,-162.59765625,-654.296875,-6.8359375
1755830980.9523785,94.23828125,-614.2578125,-845.703125,62.98828125
1755830980.9561722,73.73046875,-306.15234375,-566.89453125,51.7578125
1755830980.9599662,14.16015625,221.6796875,-278.80859375,-17.578125
1755830980.96376,38.57421875,-204.58984375,-652.34375,-11.71875
1755830980.96739,106.93359375,38.57421875,-366.69921875,55.6640625
1755830980.97102,99.12109375,502.9296875,37.109375,48.828125
1755830980.97465,55.17578125,277.34375,-210.44921875,2.9296875
1755830980.97828,76.171875,-352.5390625,-730.46875,14.6484375
1755830980.9819102,97.16796875,-324.21875,-669.921875,57.6171875
1755830980.9855404,74.70703125,95.703125,-260.25390625,52.24609375
1755830980.9891703,68.359375,-11.23046875,-363.28125,8.7890625
1755830980.9928005,80.56640625,-569.82421875,-773.92578125,10.25390625
1755830980.9964304,84.9609375,-895.01953125,-970.21484375,62.01171875
1755830981.0000606,83.0078125,113.76953125,-259.765625,64.453125
1755830981.0036905,98.6328125,485.3515625,21.97265625,49.31640625
1755830981.0073206,90.8203125,-260.25390625,-657.2265625,47.36328125
1755830981.011096,88.37890625,-226.5625,-675.29296875,62.01171875
1755830981.0148714,118.1640625,317.87109375,-170.8984375,104.00390625
1755830981.0186467,124.51171875,251.46484375,-195.80078125,86.9140625
1755830981.022422,95.21484375,-225.09765625,-637.20703125,39.55078125
1755830981.0261974,72.265625,-247.55859375,-735.83984375,47.8515625
1755830981.029973,109.375,-109.375,-519.53125,72.265625
1755830981.0337484,127.44140625,-52.734375,-388.18359375,95.21484375
1755830981.0375235,115.234375,-661.1328125,-783.203125,86.9140625
1755830981.041299,104.4921875,-796.38671875,-971.6796875,29.78515625
1755830981.0450745,131.34765625,120.1171875,-418.9453125,69.3359375
1755830981.0488498,140.13671875,224.609375,-207.03125,116.2109375
1755830981.0526252,97.65625,-98.14453125,-464.84375,62.01171875
1755830981.0564137,88.37890625,-53.7109375,-569.3359375,27.83203125
1755830981.060202,124.51171875,86.9140625,-463.37890625,72.265625
1755830981.0639906,142.08984375,118.65234375,-322.265625,92.28515625
1755830981.0677793,137.20703125,113.28125,-270.01953125,62.98828125
1755830981.0715678,96.6796875,-22.94921875,-484.375,17.08984375
1755830981.0753562,92.7734375,-211.42578125,-653.80859375,22.4609375
1755830981.0791447,136.23046875,-471.19140625,-710.9375,86.9140625
1755830981.0829332,123.046875,-521.484375,-719.23828125,91.796875
1755830981.086722,76.66015625,-64.94140625,-511.71875,24.90234375
1755830981.0905104,89.84375,-176.7578125,-630.859375,21.97265625
1755830981.0942988,125.48828125,-505.37109375,-800.78125,91.796875
1755830981.0980873,115.72265625,-143.5546875,-500.9765625,114.2578125
1755830981.1019433,102.5390625,228.02734375,-300.29296875,58.10546875
1755830981.1057992,72.265625,-146.97265625,-645.99609375,30.2734375
1755830981.1096551,88.8671875,-257.8125,-680.6640625,66.89453125
1755830981.113511,128.41796875,246.58203125,-236.81640625,83.49609375
1755830981.117367,110.3515625,309.5703125,-196.77734375,56.640625
1755830981.121223,104.4921875,-362.79296875,-740.72265625,53.22265625
1755830981.125079,121.09375,-854.98046875,-989.2578125,73.2421875
1755830981.1289346,126.953125,-220.21484375,-461.42578125,95.703125
1755830981.1327906,119.140625,425.78125,-73.73046875,93.75
1755830981.1366465,92.7734375,-130.37109375,-549.31640625,47.8515625
1755830981.1405025,100.09765625,-433.59375,-812.01171875,48.33984375
1755830981.1443584,117.67578125,199.21875,-263.18359375,98.6328125
1755830981.1517916,117.67578125,306.15234375,-63.4765625,116.69921875
1755830981.1592247,77.1484375,-324.21875,-594.7265625,65.4296875
1755830981.166658,77.63671875,-466.796875,-841.796875,39.0625
1755830981.174091,128.90625,86.9140625,-414.0625,72.75390625
1755830981.1815245,120.60546875,431.640625,-46.38671875,84.47265625
1755830981.1889577,83.0078125,-317.87109375,-527.83203125,51.26953125
1755830981.1963909,64.94140625,-1000.0,-1000.0,2.9296875
1755830981.203824,83.0078125,-291.015625,-636.71875,31.25
1755830981.2112572,106.4453125,424.8046875,-67.3828125,89.35546875
1755830981.2186904,78.61328125,124.0234375,-239.74609375,60.546875
1755830981.2261236,74.70703125,-227.05078125,-604.98046875,26.85546875
1755830981.2335567,100.5859375,-54.19921875,-556.640625,48.828125
1755830981.2358322,140.13671875,250.0,-211.9140625,98.14453125
1755830981.2381077,110.3515625,129.8828125,-235.3515625,106.4453125
1755830981.2403831,49.31640625,-114.74609375,-511.71875,41.9921875
1755830981.2426586,58.59375,-308.10546875,-669.921875,30.76171875
1755830981.244934,106.4453125,-159.66796875,-475.09765625,88.37890625
1755830981.2472095,131.34765625,-213.37890625,-436.5234375,95.21484375
1755830981.2494848,65.4296875,-408.69140625,-687.98828125,12.20703125
1755830981.2517602,28.3203125,-77.1484375,-548.828125,-20.5078125
1755830981.2540357,87.40234375,-69.3359375,-462.890625,45.41015625
1755830981.2563112,97.16796875,-111.81640625,-420.8984375,58.59375
1755830981.2585866,30.76171875,120.1171875,-307.12890625,-17.08984375
1755830981.260862,4.8828125,36.62109375,-479.00390625,-49.31640625
1755830981.263545,48.828125,-316.40625,-680.17578125,17.08984375
1755830981.2662275,71.77734375,-345.21484375,-590.33203125,52.734375
1755830981.2689106,43.45703125,145.5078125,-265.13671875,16.11328125
1755830981.271593,3.90625,134.765625,-395.01953125,-23.92578125
1755830981.2742765,29.78515625,-387.20703125,-748.046875,10.7421875
1755830981.276959,74.70703125,-1000.0,-1000.0,68.84765625
1755830981.279642,41.015625,-673.33984375,-767.578125,33.203125
1755830981.2823248,-7.8125,-137.6953125,-500.9765625,-16.6015625
1755830981.2850077,17.08984375,-396.484375,-763.18359375,6.8359375
1755830981.2876904,78.125,-137.20703125,-541.015625,67.87109375
1755830981.290373,81.54296875,452.1484375,-30.2734375,66.89453125
1755830981.293056,39.55078125,275.390625,-216.30859375,15.13671875
1755830981.296816,58.59375,-550.29296875,-827.1484375,21.484375
1755830981.3005762,109.86328125,-454.58984375,-720.21484375,84.9609375
1755830981.3043363,108.88671875,446.77734375,-94.7265625,109.375
1755830981.3080964,84.9609375,283.203125,-189.94140625,42.48046875
1755830981.3118565,64.94140625,-359.86328125,-757.8125,5.37109375
1755830981.3156166,64.94140625,-481.93359375,-849.12109375,46.875
1755830981.3193765,92.28515625,50.29296875,-337.890625,82.03125
1755830981.3231366,88.8671875,145.5078125,-288.0859375,65.91796875
1755830981.326897,77.1484375,-671.38671875,-879.8828125,31.25
1755830981.3306568,78.125,-661.62109375,-905.76171875,46.875
1755830981.3344169,119.62890625,275.390625,-232.91015625,93.26171875
1755830981.338177,149.4140625,250.0,-195.3125,103.02734375
1755830981.3419132,92.7734375,-493.65234375,-841.30859375,63.4765625
1755830981.3456492,60.546875,-214.84375,-722.65625,43.9453125
1755830981.3493855,86.42578125,297.8515625,-258.30078125,101.07421875
1755830981.3531215,92.28515625,302.24609375,-163.0859375,93.75
1755830981.3568578,57.12890625,15.625,-421.38671875,28.3203125
1755830981.3605938,45.8984375,-378.90625,-783.69140625,19.53125
1755830981.36433,70.80078125,-125.0,-546.38671875,29.296875
1755830981.3680663,105.46875,-128.90625,-441.40625,69.3359375
1755830981.3718023,92.7734375,-546.875,-782.71484375,53.22265625
1755830981.3755386,51.7578125,-124.0234375,-628.90625,4.8828125
1755830981.3792746,85.9375,30.76171875,-520.99609375,56.640625
1755830981.3830109,105.95703125,170.41015625,-258.30078125,102.05078125
1755830981.3868752,82.03125,74.21875,-257.8125,73.2421875
1755830981.3907394,45.8984375,-56.640625,-500.9765625,13.18359375
1755830981.3946035,74.70703125,-17.08984375,-524.4140625,36.1328125
1755830981.3984678,128.41796875,-94.23828125,-453.61328125,101.5625
1755830981.402332,99.609375,171.38671875,-180.17578125,85.9375
1755830981.406196,77.1484375,-41.9921875,-397.4609375,44.43359375
1755830981.4100604,82.03125,-508.7890625,-810.05859375,49.8046875
1755830981.4139247,112.79296875,-672.8515625,-861.328125,107.421875
1755830981.417789,125.48828125,-100.5859375,-383.7890625,116.2109375
1755830981.4216533,89.35546875,314.94140625,-132.32421875,60.546875
1755830981.425517,71.77734375,-307.6171875,-662.109375,28.3203125
1755830981.4293816,96.19140625,-243.1640625,-572.75390625,59.5703125
1755830981.4340856,101.07421875,428.22265625,8.7890625,77.1484375
1755830981.4387896,80.56640625,456.54296875,7.8125,45.41015625
1755830981.4434936,68.84765625,-250.48828125,-571.77734375,19.04296875
1755830981.4481976,90.8203125,-581.0546875,-808.59375,43.45703125
1755830981.4529016,115.72265625,69.3359375,-255.37109375,90.33203125
1755830981.4576056,95.703125,130.859375,-138.671875,81.0546875
1755830981.4623096,91.30859375,-607.91015625,-708.0078125,43.9453125
1755830981.4670136,94.7265625,-916.015625,-969.7265625,37.59765625
1755830981.4717176,92.28515625,-76.66015625,-366.2109375,52.734375
1755830981.4764216,107.421875,444.3359375,59.5703125,51.7578125
1755830981.4811256,78.61328125,-54.6875,-349.609375,6.8359375
1755830981.4858296,73.73046875,-292.48046875,-629.39453125,-1.46484375
1755830981.4895854,104.98046875,128.90625,-270.99609375,63.4765625
1755830981.4933414,123.53515625,351.07421875,-14.6484375,79.58984375
1755830981.4970973,100.5859375,13.18359375,-310.05859375,35.15625
1755830981.5008533,63.4765625,-229.4921875,-627.44140625,24.4140625
1755830981.504609,98.14453125,8.30078125,-437.01171875,50.78125
1755830981.5083652,131.8359375,146.484375,-158.69140625,72.265625
1755830981.512121,114.74609375,-373.046875,-495.1171875,52.24609375
1755830981.5158768,58.59375,-586.42578125,-793.45703125,-3.41796875
1755830981.5196328,51.26953125,-1.46484375,-449.21875,-0.9765625
1755830981.5233886,109.375,232.91015625,-134.765625,68.359375
1755830981.527145,88.37890625,-160.15625,-334.9609375,72.75390625
1755830981.5309005,33.203125,-143.5546875,-476.07421875,-14.16015625
1755830981.534827,62.98828125,104.98046875,-368.1640625,-5.859375
1755830981.5387535,101.5625,57.6171875,-297.8515625,46.38671875
1755830981.5426798,68.359375,122.0703125,-155.76171875,43.45703125
1755830981.5466063,2.44140625,251.953125,-95.21484375,-8.7890625
1755830981.5505328,-0.48828125,175.29296875,-260.25390625,-34.1796875
1755830981.554459,60.05859375,-354.00390625,-589.84375,11.71875
1755830981.5583858,82.03125,-366.2109375,-498.53515625,12.6953125
1755830981.5623124,35.15625,355.95703125,-32.71484375,-24.90234375
1755830981.5662389,35.64453125,247.0703125,-183.10546875,-44.921875
1755830981.5701652,79.58984375,-491.2109375,-700.1953125,10.7421875
1755830981.5740917,87.40234375,-234.375,-428.22265625,47.8515625
1755830981.5780182,73.73046875,525.87890625,99.12109375,16.11328125
1755830981.5817697,59.5703125,95.21484375,-321.77734375,-3.90625
1755830981.5855217,73.2421875,-223.6328125,-549.31640625,-4.8828125
1755830981.589273,103.02734375,222.16796875,-147.94921875,30.76171875
1755830981.5930247,87.40234375,573.73046875,148.4375,48.33984375
1755830981.5967762,51.7578125,260.25390625,-136.71875,21.484375
1755830981.6005278,62.98828125,-422.36328125,-655.2734375,19.53125
1755830981.6042795,85.9375,-243.65234375,-448.73046875,32.71484375
1755830981.608031,63.96484375,561.03515625,177.734375,35.15625
1755830981.6117828,28.3203125,254.39453125,-99.12109375,7.8125
1755830981.6155343,19.04296875,-718.26171875,-869.140625,-15.13671875
1755830981.619286,39.55078125,-213.37890625,-493.1640625,0.0
1755830981.6230376,56.15234375,576.66015625,214.84375,33.69140625
1755830981.626788,28.3203125,-34.1796875,-212.40234375,-2.44140625
1755830981.6305385,21.97265625,-645.99609375,-837.890625,-39.0625
1755830981.6342888,46.875,-151.85546875,-541.50390625,-4.8828125
1755830981.6380394,57.6171875,448.2421875,41.015625,47.36328125
1755830981.6417897,57.6171875,273.4375,-2.9296875,41.015625
1755830981.6455402,25.390625,-385.7421875,-568.359375,-21.484375
1755830981.6492906,31.73828125,-371.09375,-636.71875,-25.390625
1755830981.653041,70.3125,391.6015625,-25.390625,38.0859375
1755830981.6567914,70.3125,2.44140625,-204.1015625,53.7109375
1755830981.6605418,35.15625,-717.28515625,-793.45703125,-7.8125
1755830981.6642923,5.37109375,-176.7578125,-540.0390625,-26.85546875
1755830981.668043,52.24609375,183.59375,-215.33203125,39.0625
1755830981.6717772,62.5,222.16796875,-83.984375,45.8984375
1755830981.675512,7.32421875,142.08984375,-205.078125,-8.7890625
1755830981.679247,3.90625,-100.09765625,-449.21875,-43.9453125
1755830981.6829815,52.24609375,-225.09765625,-499.51171875,2.44140625
1755830981.686716,85.44921875,-149.90234375,-353.02734375,65.4296875
1755830981.690451,51.7578125,-214.35546875,-398.92578125,34.1796875
1755830981.6941855,28.80859375,-258.30078125,-539.0625,-6.34765625
1755830981.6979203,67.87109375,-145.99609375,-466.30859375,46.38671875
1755830981.701655,91.30859375,-390.625,-537.109375,91.796875
1755830981.7053895,64.94140625,-73.73046875,-312.5,33.203125
1755830981.7091246,33.69140625,320.80078125,-148.4375,-15.13671875
1755830981.7128592,59.08203125,-84.9609375,-487.79296875,20.99609375
1755830981.7166247,85.44921875,82.03125,-252.44140625,57.6171875
1755830981.7203903,60.05859375,570.3125,168.9453125,37.109375
1755830981.724156,35.64453125,317.87109375,-114.2578125,-29.78515625
1755830981.7279215,34.66796875,-226.07421875,-592.7734375,-36.1328125
1755830981.731687,79.58984375,-137.20703125,-450.1953125,33.69140625
1755830981.735453,79.1015625,179.6875,-94.23828125,55.17578125
1755830981.739218,20.99609375,-101.07421875,-331.54296875,2.9296875
1755830981.7429836,27.83203125,-725.5859375,-837.890625,-16.11328125
1755830981.7467492,57.6171875,-875.48828125,-931.640625,39.55078125
1755830981.7505147,55.6640625,119.62890625,-170.8984375,64.453125
1755830981.7542803,44.921875,465.8203125,106.4453125,46.875
1755830981.758046,28.80859375,-140.13671875,-453.61328125,6.34765625
1755830981.7617478,60.05859375,-146.97265625,-514.16015625,20.99609375
1755830981.76545,88.37890625,391.6015625,-57.12890625,63.96484375
1755830981.769152,66.40625,417.48046875,33.69140625,54.19921875
1755830981.772854,42.48046875,-57.6171875,-372.0703125,3.90625
1755830981.7765558,45.8984375,-158.69140625,-541.50390625,4.8828125
1755830981.7802577,84.47265625,-54.6875,-344.7265625,55.17578125
1755830981.78396,87.40234375,-6.8359375,-208.0078125,42.96875
1755830981.7876618,49.8046875,-508.30078125,-638.671875,18.06640625
1755830981.7913637,33.203125,-738.76953125,-881.34765625,4.39453125
1755830981.795066,67.87109375,-87.40234375,-414.55078125,41.015625
1755830981.7987678,96.19140625,194.82421875,-107.421875,62.98828125
1755830981.8024695,77.1484375,-217.28515625,-418.45703125,26.3671875
1755830981.8062248,59.08203125,-205.078125,-543.9453125,1.953125
1755830981.80998,75.1953125,37.109375,-354.00390625,47.36328125
1755830981.8137352,91.30859375,58.10546875,-237.79296875,90.33203125
1755830981.8174903,81.0546875,20.01953125,-253.41796875,57.6171875
1755830981.8212454,61.5234375,-62.5,-455.078125,12.6953125
1755830981.8250008,83.984375,-280.76171875,-603.515625,31.73828125
1755830981.828756,126.46484375,-624.51171875,-707.03125,86.9140625
1755830981.832511,99.12109375,-615.234375,-666.015625,54.19921875
1755830981.836266,54.6875,-104.00390625,-408.69140625,-5.859375
1755830981.8400211,72.265625,-161.62109375,-538.57421875,22.94921875
1755830981.8437765,107.91015625,-9.765625,-295.8984375,82.03125
1755830981.8475316,105.95703125,177.24609375,-0.48828125,74.21875
1755830981.8513985,71.77734375,0.9765625,-229.98046875,37.109375
1755830981.8552656,64.453125,-179.19921875,-516.6015625,44.921875
1755830981.8591328,70.3125,-409.1796875,-633.7890625,56.15234375
1755830981.8629997,62.98828125,68.84765625,-163.57421875,64.94140625
1755830981.8668666,72.265625,294.921875,-6.34765625,38.57421875
1755830981.8707335,61.03515625,-409.66796875,-620.60546875,11.71875
1755830981.874601,61.03515625,-887.6953125,-970.703125,39.55078125
1755830981.8784678,88.8671875,-187.5,-405.2734375,88.8671875
1755830981.8823347,79.1015625,472.65625,113.28125,72.75390625
1755830981.886202,52.734375,-146.484375,-408.69140625,19.53125
1755830981.890069,63.4765625,-500.9765625,-725.5859375,35.15625
1755830981.893936,78.61328125,106.4453125,-214.84375,81.0546875
1755830981.8987732,80.078125,443.359375,56.640625,81.0546875
1755830981.9036107,60.546875,-123.046875,-418.45703125,34.66796875
1755830981.908448,41.50390625,-654.78515625,-823.73046875,23.4375
1755830981.9132853,59.08203125,-188.4765625,-453.125,55.17578125
1755830981.9181223,53.7109375,443.84765625,63.96484375,45.41015625
1755830981.9229598,29.78515625,-232.421875,-410.64453125,7.32421875
1755830981.9277973,14.16015625,-1000.0,-1000.0,-20.5078125
1755830981.9326346,-0.9765625,-224.12109375,-497.55859375,3.90625
1755830981.937472,34.1796875,492.67578125,81.0546875,48.828125
1755830981.9423094,25.87890625,172.8515625,-126.46484375,17.578125
1755830981.947147,-1.46484375,-187.98828125,-535.64453125,-10.7421875
1755830981.951984,39.0625,14.16015625,-420.8984375,4.39453125
1755830981.9558177,76.171875,412.109375,24.4140625,72.75390625
1755830981.9596517,64.453125,318.84765625,-14.6484375,74.70703125
1755830981.9634857,22.4609375,-85.44921875,-471.6796875,13.18359375
1755830981.9673193,23.92578125,-54.19921875,-538.57421875,32.2265625
1755830981.971153,59.5703125,111.81640625,-290.52734375,88.8671875
1755830981.974987,80.078125,-173.828125,-393.5546875,84.9609375
1755830981.9788208,46.38671875,-535.64453125,-719.7265625,41.50390625
1755830981.9826546,35.15625,-444.3359375,-753.90625,41.9921875
1755830981.9864883,100.09765625,-58.59375,-429.19921875,100.5859375
1755830981.990322,132.32421875,-564.453125,-686.03515625,133.7890625
1755830981.994156,77.1484375,-506.34765625,-706.54296875,85.44921875
1755830981.99799,29.78515625,76.66015625,-398.92578125,53.7109375
1755830982.0017817,73.73046875,-83.49609375,-462.40234375,90.33203125
1755830982.0055733,116.69921875,70.3125,-249.51171875,126.46484375
1755830982.009365,88.8671875,290.52734375,-82.03125,75.1953125
1755830982.013157,50.78125,-63.96484375,-463.37890625,3.90625
1755830982.0169487,63.4765625,-381.34765625,-730.95703125,36.62109375
1755830982.0207405,86.42578125,-260.7421875,-457.03125,96.19140625
1755830982.024532,63.96484375,69.82421875,-187.01171875,69.3359375
1755830982.028324,52.734375,116.69921875,-293.9453125,13.671875
1755830982.0321157,57.6171875,-561.5234375,-763.18359375,38.57421875
1755830982.0359073,66.89453125,-822.265625,-870.60546875,79.58984375
1755830982.039699,59.08203125,148.92578125,-173.828125,50.29296875
1755830982.043491,44.43359375,150.390625,-262.20703125,20.99609375
1755830982.047206,46.38671875,-367.67578125,-709.47265625,7.8125
1755830982.0509212,69.82421875,-45.8984375,-422.36328125,64.94140625
1755830982.0546362,92.28515625,447.265625,7.32421875,102.5390625
1755830982.0583513,51.7578125,310.546875,-87.40234375,41.50390625
1755830982.0620666,35.64453125,-212.890625,-539.55078125,21.97265625
1755830982.0657816,90.8203125,-327.1484375,-593.26171875,50.29296875
1755830982.0694966,94.7265625,60.05859375,-187.98828125,89.84375
1755830982.073212,62.98828125,205.078125,-104.00390625,68.84765625
1755830982.076927,61.03515625,-657.2265625,-785.15625,16.11328125
1755830982.080642,80.078125,-617.1875,-827.63671875,45.41015625
1755830982.0843573,104.00390625,307.12890625,-96.19140625,92.7734375
1755830982.0880723,84.9609375,-11.71875,-209.47265625,90.33203125
1755830982.0918186,36.1328125,-630.859375,-787.109375,22.4609375
1755830982.0955648,40.0390625,-337.40234375,-703.61328125,10.25390625
1755830982.0993114,85.44921875,176.7578125,-250.9765625,81.0546875
1755830982.1030576,85.44921875,253.41796875,-64.94140625,88.37890625
1755830982.106804,66.40625,-130.859375,-391.11328125,24.4140625
1755830982.1105502,48.33984375,-511.71875,-750.9765625,23.92578125
1755830982.1142964,80.56640625,-94.23828125,-416.015625,71.2890625
1755830982.1180427,109.375,-80.56640625,-323.73046875,92.7734375
1755830982.121789,70.3125,-615.72265625,-723.6328125,64.453125
1755830982.1255355,43.9453125,-205.56640625,-574.21875,12.20703125
1755830982.1292818,57.12890625,5.37109375,-457.51953125,39.0625
1755830982.133028,71.2890625,137.20703125,-223.14453125,68.84765625
1755830982.136891,59.08203125,272.94921875,-100.5859375,29.78515625
1755830982.140754,41.50390625,86.9140625,-336.42578125,-1.953125
1755830982.1446168,53.7109375,-349.609375,-665.52734375,28.80859375
1755830982.14848,82.51953125,-379.8828125,-609.375,53.22265625
1755830982.1523428,77.63671875,49.8046875,-283.203125,43.9453125
1755830982.1562057,44.43359375,-153.3203125,-481.93359375,29.78515625
1755830982.1600688,40.52734375,-522.4609375,-783.203125,30.2734375
1755830982.1639316,93.26171875,-703.61328125,-850.5859375,82.51953125
1755830982.1677947,100.5859375,-172.36328125,-405.76171875,102.05078125
1755830982.1716576,57.12890625,381.34765625,-74.21875,54.6875
1755830982.175521,64.453125,-203.61328125,-594.7265625,49.8046875
1755830982.1793835,85.44921875,-255.37109375,-583.0078125,90.33203125
1755830982.1830244,85.44921875,405.76171875,-3.90625,108.88671875
1755830982.186665,100.09765625,507.8125,40.52734375,71.77734375
1755830982.190306,92.7734375,-150.390625,-551.26953125,38.0859375
1755830982.1939468,83.0078125,-291.9921875,-670.8984375,82.51953125
1755830982.1975875,90.8203125,295.8984375,-100.09765625,109.86328125
1755830982.2012284,62.5,186.03515625,-143.5546875,57.6171875
1755830982.2048693,45.8984375,-575.68359375,-730.46875,52.734375
1755830982.20851,52.734375,-939.94140625,-997.0703125,72.75390625
1755830982.2121508,71.77734375,-68.359375,-408.203125,91.796875
1755830982.2157917,78.125,532.71484375,103.515625,77.1484375
1755830982.2194324,33.203125,37.59765625,-319.82421875,42.96875
1755830982.2230732,31.25,-186.5234375,-617.67578125,39.55078125
1755830982.2279544,61.03515625,347.16796875,-171.38671875,92.28515625
1755830982.2328355,53.7109375,498.53515625,28.80859375,104.98046875
1755830982.237717,14.16015625,-14.6484375,-369.62890625,39.0625
1755830982.2425976,-26.85546875,-231.4453125,-659.66796875,9.765625
1755830982.2474787,19.53125,31.25,-473.14453125,33.203125
1755830982.25236,60.05859375,165.52734375,-194.82421875,68.84765625
1755830982.257241,24.4140625,-463.37890625,-609.375,48.33984375
1755830982.2621222,-18.06640625,-672.36328125,-894.53125,-9.27734375
1755830982.267003,3.90625,-153.80859375,-568.359375,0.9765625
1755830982.2718842,49.8046875,99.609375,-275.87890625,79.1015625
1755830982.276765,35.15625,-66.40625,-380.859375,60.546875
1755830982.2816465,-4.39453125,-112.3046875,-542.48046875,-18.5546875
1755830982.2855153,19.53125,-31.73828125,-520.01953125,-10.25390625
1755830982.289384,54.19921875,-34.1796875,-437.01171875,63.4765625
1755830982.293253,49.31640625,125.0,-231.4453125,68.359375
1755830982.2971218,7.32421875,232.421875,-240.72265625,18.5546875
1755830982.3009906,-1.953125,-24.90234375,-560.546875,-3.41796875
1755830982.3048592,52.24609375,-510.25390625,-826.171875,52.24609375
1755830982.308728,62.5,-425.29296875,-666.015625,65.91796875
1755830982.3125968,16.6015625,163.0859375,-305.6640625,-8.7890625
1755830982.3164656,-3.90625,98.14453125,-451.171875,-22.94921875
1755830982.3203344,29.296875,-322.75390625,-728.515625,28.3203125
1755830982.3242033,69.82421875,-250.9765625,-543.45703125,57.6171875
1755830982.328072,50.29296875,-0.9765625,-350.5859375,24.90234375
1755830982.331818,-5.859375,-190.4296875,-627.44140625,-16.6015625
1755830982.3355637,17.578125,-513.671875,-870.1171875,-4.8828125
1755830982.3393097,48.828125,-86.9140625,-442.3828125,37.59765625
1755830982.3430552,39.55078125,544.921875,62.98828125,23.4375
1755830982.346801,1.46484375,26.3671875,-437.01171875,-35.15625
1755830982.3505468,4.8828125,-696.2890625,-970.21484375,-25.87890625
1755830982.3542926,40.0390625,-346.6796875,-640.625,19.04296875
1755830982.3580384,26.3671875,264.6484375,-187.98828125,10.25390625
1755830982.3617842,9.765625,-90.8203125,-453.125,-39.0625
1755830982.36553,24.90234375,-791.50390625,-939.94140625,-38.57421875
1755830982.3692758,37.59765625,-395.5078125,-666.015625,-9.27734375
1755830982.3730216,36.1328125,383.7890625,-84.9609375,-2.9296875
1755830982.3768897,22.4609375,82.03125,-289.0625,-32.2265625
1755830982.380757,3.90625,-499.51171875,-770.99609375,-53.22265625
1755830982.384625,19.53125,-421.38671875,-732.91015625,-16.6015625
1755830982.3884928,52.24609375,133.30078125,-301.7578125,24.90234375
1755830982.3923607,25.87890625,-143.5546875,-449.70703125,-1.46484375
1755830982.3962283,-38.0859375,-1000.0,-1000.0,-56.15234375
1755830982.4000962,-29.296875,-741.69921875,-923.828125,-47.36328125
1755830982.403964,6.34765625,23.4375,-398.4375,7.32421875
1755830982.407832,7.32421875,-315.91796875,-522.94921875,11.71875
1755830982.4116998,-27.83203125,-804.6875,-927.24609375,-47.36328125
1755830982.4155674,-62.01171875,-350.09765625,-730.46875,-96.6796875
1755830982.4194353,-11.23046875,-111.328125,-469.7265625,-47.8515625
1755830982.4230604,5.859375,-82.51953125,-354.4921875,-12.20703125
1755830982.426685,-41.9921875,-125.9765625,-450.1953125,-59.5703125
1755830982.4303105,-51.7578125,-221.19140625,-639.6484375,-80.56640625
1755830982.4339354,-15.13671875,-176.7578125,-561.5234375,-50.78125
1755830982.4375606,21.97265625,-105.46875,-349.609375,-27.34375
1755830982.4411857,-3.90625,-321.77734375,-514.6484375,-68.359375
1755830982.4448106,-38.0859375,-630.859375,-846.19140625,-98.6328125
1755830982.4484358,-21.484375,-538.0859375,-795.41015625,-66.40625
1755830982.4520607,27.83203125,-765.13671875,-864.74609375,-3.41796875
1755830982.455686,12.6953125,-705.56640625,-822.265625,-24.90234375
1755830982.4593108,-40.52734375,-147.94921875,-569.82421875,-96.6796875
1755830982.462936,-11.23046875,-563.96484375,-884.27734375,-70.80078125
1755830982.4666972,26.3671875,-486.81640625,-709.9609375,-17.08984375
1755830982.4704587,-7.8125,186.03515625,-174.31640625,-36.1328125
1755830982.4742205,-46.38671875,-42.48046875,-431.15234375,-85.44921875
1755830982.4779816,-34.1796875,-627.44140625,-924.8046875,-90.33203125
1755830982.4817429,0.9765625,-437.98828125,-720.703125,-19.04296875
1755830982.4855044,0.9765625,-60.546875,-352.5390625,5.859375
1755830982.489266,-43.9453125,-372.0703125,-609.86328125,-74.21875
1755830982.4930272,-35.15625,-841.796875,-974.609375,-89.84375
1755830982.4967885,5.859375,-860.83984375,-913.0859375,-53.7109375
1755830982.50055,-7.8125,14.6484375,-311.5234375,-56.15234375
1755830982.5043116,-32.71484375,235.3515625,-201.66015625,-85.44921875
1755830982.5080729,-55.6640625,-351.5625,-674.31640625,-153.3203125
1755830982.5118213,-51.7578125,-305.17578125,-649.90234375,-125.0
1755830982.5155697,-14.16015625,194.3359375,-254.8828125,-73.73046875
1755830982.519318,8.30078125,126.46484375,-259.27734375,-84.47265625
1755830982.5230663,-34.66796875,-336.42578125,-677.24609375,-121.58203125
1755830982.526815,-29.296875,-526.85546875,-883.30078125,-103.515625
1755830982.5305634,18.06640625,-384.765625,-675.78125,-54.19921875
1755830982.5343115,5.37109375,-144.04296875,-413.0859375,-66.40625
1755830982.53806,-35.15625,-629.39453125,-762.6953125,-110.83984375
1755830982.5418084,-33.203125,-710.9375,-969.7265625,-121.58203125
1755830982.5455568,-8.30078125,58.10546875,-440.4296875,-63.96484375
1755830982.5493052,-9.765625,47.8515625,-295.8984375,-39.55078125
1755830982.5530536,-41.015625,-381.34765625,-671.875,-95.703125
1755830982.5569203,-66.89453125,-295.8984375,-765.13671875,-112.3046875
1755830982.5607877,-35.64453125,-80.078125,-614.2578125,-98.14453125
1755830982.5646546,-15.625,-84.47265625,-464.35546875,-70.80078125
1755830982.5685215,-40.52734375,-186.5234375,-500.9765625,-59.5703125
1755830982.5723886,-67.3828125,-283.203125,-721.19140625,-101.07421875
1755830982.5762558,-61.03515625,-545.41015625,-913.57421875,-65.91796875
1755830982.5801227,-2.44140625,-737.3046875,-907.2265625,-11.23046875
1755830982.5839896,14.16015625,-701.171875,-810.546875,-28.80859375
1755830982.5878568,-68.84765625,-233.88671875,-604.00390625,-110.3515625
1755830982.5917237,-71.2890625,-219.7265625,-718.75,-126.953125
1755830982.5955908,-9.27734375,-280.76171875,-697.265625,-83.984375
1755830982.5994575,-35.15625,-32.2265625,-455.078125,-93.75
1755830982.604452,-59.5703125,37.109375,-444.3359375,-149.4140625
1755830982.609446,-35.15625,-365.234375,-770.99609375,-156.25
1755830982.61444,-13.671875,-561.03515625,-872.0703125,-115.234375
1755830982.619434,-25.87890625,-20.01953125,-420.41015625,-105.95703125
1755830982.6244285,-62.5,166.9921875,-344.7265625,-130.37109375
1755830982.6294224,-66.89453125,-429.6875,-833.49609375,-149.90234375
1755830982.6344166,-32.2265625,-993.1640625,-1000.0,-97.65625
1755830982.6394107,-14.16015625,-606.4453125,-751.953125,-68.359375
1755830982.644405,-38.57421875,189.453125,-316.89453125,-109.375
1755830982.6493988,-47.36328125,-166.50390625,-651.3671875,-133.30078125
1755830982.654393,-28.80859375,-468.75,-870.60546875,-115.72265625
1755830982.659387,-22.94921875,87.890625,-386.23046875,-67.3828125
1755830982.662955,-25.87890625,454.1015625,-81.54296875,-66.40625
1755830982.666523,-57.6171875,-112.3046875,-553.22265625,-135.25390625
1755830982.670091,-68.84765625,-506.34765625,-929.19921875,-163.57421875
1755830982.6736588,-50.29296875,65.91796875,-444.82421875,-96.19140625
1755830982.6772268,-28.80859375,253.90625,-156.73828125,-66.89453125
1755830982.6807947,-51.7578125,-378.90625,-639.6484375,-125.9765625
1755830982.6843626,-72.75390625,-807.12890625,-1000.0,-169.43359375
1755830982.6879306,-48.828125,-297.8515625,-720.21484375,-116.69921875
1755830982.6914985,-28.80859375,323.2421875,-154.78515625,-60.546875
1755830982.6950665,-45.41015625,-304.6875,-506.34765625,-111.328125
1755830982.6986344,-79.1015625,-991.2109375,-1000.0,-185.05859375
1755830982.7022023,-79.1015625,-278.80859375,-664.0625,-152.83203125
1755830982.7060254,-34.66796875,287.109375,-196.2890625,-103.02734375
1755830982.7098484,-56.15234375,72.265625,-271.97265625,-137.20703125
1755830982.7136712,-84.9609375,-210.44921875,-584.9609375,-182.6171875
1755830982.7174942,-62.98828125,-197.75390625,-690.4296875,-181.15234375
1755830982.7213173,-41.015625,42.48046875,-412.109375,-134.27734375
1755830982.72514,-55.17578125,-176.7578125,-445.3125,-115.72265625
1755830982.7289631,-98.14453125,-465.8203125,-713.37890625,-179.19921875
1755830982.7327862,-98.14453125,-543.45703125,-861.81640625,-203.125
1755830982.7366092,-76.171875,-282.2265625,-599.12109375,-143.5546875
1755830982.7404325,-53.22265625,-568.359375,-688.96484375,-104.98046875
1755830982.744255,-93.75,-765.13671875,-892.578125,-149.4140625
1755830982.748078,-125.48828125,-220.21484375,-594.7265625,-181.15234375
1755830982.751887,-80.56640625,-254.39453125,-564.94140625,-143.06640625
1755830982.755696,-63.4765625,-286.1328125,-507.8125,-107.91015625
1755830982.759505,-95.703125,71.2890625,-280.76171875,-134.27734375
1755830982.763314,-108.88671875,-58.59375,-505.37109375,-186.03515625
1755830982.767123,-133.7890625,-559.08203125,-854.98046875,-176.7578125
1755830982.7709322,-149.4140625,-570.80078125,-674.8046875,-157.71484375
1755830982.7747412,-169.921875,-189.453125,-380.859375,-221.6796875
1755830982.77855,-212.40234375,-133.30078125,-511.71875,-297.8515625
1755830982.7823591,-199.21875,-676.26953125,-901.85546875,-272.4609375
1755830982.786168,-173.33984375,-631.34765625,-711.9140625,-236.328125
1755830982.789977,-174.31640625,28.3203125,-208.0078125,-236.328125
1755830982.793786,-203.125,-1.46484375,-329.58984375,-261.71875
1755830982.7974432,-220.21484375,-469.7265625,-730.95703125,-272.4609375
1755830982.8011005,-194.82421875,-323.73046875,-595.703125,-218.26171875
1755830982.8047574,-172.8515625,400.390625,23.92578125,-171.875
1755830982.8084145,-198.2421875,168.9453125,-157.2265625,-205.078125
1755830982.8120716,-228.515625,-364.2578125,-672.8515625,-258.7890625
1755830982.815729,-182.6171875,-379.8828125,-658.203125,-225.5859375
1755830982.819386,-153.80859375,82.03125,-192.87109375,-187.98828125
1755830982.823043,-189.94140625,309.5703125,-4.8828125,-219.7265625
1755830982.8267002,-199.21875,-612.3046875,-723.14453125,-243.1640625
1755830982.8303573,-207.51953125,-630.859375,-805.17578125,-216.30859375
1755830982.8340144,-207.03125,456.54296875,12.6953125,-192.87109375
1755830982.8376715,-192.3828125,396.97265625,42.48046875,-204.1015625
1755830982.842595,-205.078125,-193.84765625,-471.19140625,-236.328125
1755830982.8475184,-212.890625,-360.3515625,-666.9921875,-246.58203125
1755830982.852442,-189.453125,110.83984375,-292.96875,-208.0078125
1755830982.8573656,-187.98828125,230.46875,-114.2578125,-186.03515625
1755830982.862289,-244.140625,-285.15625,-528.80859375,-232.91015625
1755830982.8672123,-243.1640625,-359.375,-683.59375,-265.625
1755830982.872136,-187.5,-76.171875,-416.9921875,-222.16796875
1755830982.8770597,-170.41015625,-151.85546875,-361.81640625,-165.52734375
1755830982.881983,-183.10546875,-438.4765625,-603.515625,-184.5703125
1755830982.8869066,-204.1015625,-66.89453125,-461.42578125,-234.375
1755830982.89183,-170.41015625,180.6640625,-248.53515625,-199.21875
1755830982.8967535,-149.90234375,390.625,41.9921875,-150.87890625
1755830982.899348,-179.19921875,409.1796875,41.9921875,-198.2421875
1755830982.9019425,-207.03125,214.35546875,-219.23828125,-230.46875
1755830982.9045367,-156.25,-20.99609375,-432.12890625,-186.03515625
1755830982.907131,-112.3046875,136.23046875,-179.19921875,-122.55859375
1755830982.9097254,-164.55078125,266.6015625,12.20703125,-142.08984375
1755830982.9123197,-206.54296875,-187.5,-416.015625,-202.63671875
1755830982.914914,-192.87109375,-302.24609375,-585.9375,-189.453125
1755830982.9175086,-156.73828125,-628.90625,-759.765625,-137.20703125
1755830982.9201028,-148.4375,-362.79296875,-475.09765625,-127.44140625
1755830982.9226973,-200.1953125,394.04296875,1.46484375,-179.19921875
1755830982.9252915,-201.171875,-135.7421875,-473.6328125,-183.59375
1755830982.927886,-140.13671875,-353.02734375,-590.8203125,-141.11328125
1755830982.9316058,-138.671875,347.65625,15.13671875,-125.9765625
1755830982.9353254,-166.50390625,534.1796875,166.50390625,-168.9453125
1755830982.9390452,-144.53125,-105.46875,-388.18359375,-199.21875
1755830982.9427648,-124.51171875,-236.81640625,-527.83203125,-141.11328125
1755830982.9464846,-123.53515625,275.390625,-43.45703125,-114.74609375
1755830982.9502044,-137.20703125,219.7265625,16.11328125,-160.64453125
1755830982.953924,-169.921875,-472.65625,-565.4296875,-204.1015625
1755830982.9576435,-174.31640625,-939.453125,-982.421875,-193.84765625
1755830982.9613633,-167.48046875,29.78515625,-221.6796875,-159.1796875
1755830982.9650831,-133.30078125,662.59765625,309.5703125,-155.2734375
1755830982.9688027,-148.4375,74.21875,-206.0546875,-185.05859375
1755830982.9725225,-170.41015625,-124.51171875,-416.015625,-188.96484375
1755830982.977399,-132.32421875,337.40234375,-42.48046875,-151.3671875
1755830982.9822762,-106.4453125,512.6953125,159.1796875,-111.81640625
1755830982.987153,-118.65234375,121.58203125,-162.109375,-133.7890625
1755830982.99203,-123.53515625,-104.98046875,-449.21875,-162.59765625
1755830982.9969068,-103.02734375,140.13671875,-226.5625,-115.234375
1755830983.0017838,-78.61328125,250.9765625,6.34765625,-76.171875
1755830983.0066607,-97.16796875,-429.19921875,-511.23046875,-106.93359375
1755830983.0115376,-158.203125,-614.2578125,-837.40234375,-182.6171875
1755830983.0164144,-151.3671875,118.1640625,-322.75390625,-172.36328125
1755830983.0212913,-103.02734375,273.92578125,-32.71484375,-114.2578125
1755830983.026168,-136.71875,19.04296875,-187.01171875,-144.53125
1755830983.031045,-188.4765625,-10.7421875,-375.0,-208.0078125
1755830983.0348773,-164.0625,141.6015625,-337.40234375,-196.77734375
1755830983.0387096,-101.07421875,0.0,-336.9140625,-129.8828125
1755830983.042542,-93.75,-13.671875,-266.11328125,-132.8125
1755830983.046374,-159.1796875,129.39453125,-265.13671875,-197.265625
1755830983.0502064,-167.48046875,-74.21875,-523.4375,-194.82421875
1755830983.0540388,-126.46484375,-485.3515625,-712.890625,-142.578125
1755830983.057871,-120.1171875,-438.4765625,-533.203125,-120.1171875
1755830983.0617034,-133.30078125,124.51171875,-183.59375,-148.92578125
1755830983.0655355,-129.8828125,-17.578125,-453.61328125,-168.45703125
1755830983.069368,-94.7265625,-411.1328125,-713.8671875,-125.0
1755830983.0732002,-63.4765625,-107.91015625,-370.60546875,-92.7734375
1755830983.0770326,-123.046875,381.34765625,-47.36328125,-137.20703125
1755830983.0808413,-151.3671875,-33.69140625,-405.2734375,-195.80078125
1755830983.08465,-101.07421875,-519.04296875,-741.2109375,-183.59375
1755830983.088459,-89.84375,-124.0234375,-412.59765625,-151.3671875
1755830983.0922678,-121.09375,442.87109375,18.5546875,-186.03515625
1755830983.0960765,-150.390625,29.78515625,-361.81640625,-223.6328125
1755830983.0998852,-143.06640625,-566.89453125,-799.8046875,-209.47265625
1755830983.103694,-113.76953125,-268.5546875,-502.9296875,-172.36328125
1755830983.1075027,-136.23046875,325.1953125,-58.10546875,-194.3359375
1755830983.1113114,-174.8046875,94.7265625,-283.203125,-248.53515625
1755830983.1151204,-175.29296875,-630.859375,-820.80078125,-231.93359375
1755830983.1189291,-145.99609375,-170.8984375,-437.01171875,-194.82421875
1755830983.122738,-114.74609375,594.23828125,163.57421875,-167.48046875
1755830983.126451,-136.71875,152.83203125,-163.57421875,-182.6171875
1755830983.130164,-145.99609375,-298.828125,-602.05078125,-218.75
1755830983.133877,-105.46875,11.23046875,-392.08984375,-187.01171875
1755830983.1375902,-110.83984375,216.30859375,-102.05078125,-137.6953125
1755830983.141303,-121.58203125,-284.1796875,-433.59375,-144.53125
1755830983.1450162,-154.296875,-844.7265625,-926.26953125,-201.171875
1755830983.148729,-155.76171875,-488.28125,-712.40234375,-212.890625
1755830983.1524422,-103.515625,299.8046875,-49.8046875,-160.64453125
1755830983.156155,-95.21484375,-82.51953125,-226.5625,-134.765625
1755830983.1598685,-157.71484375,-784.1796875,-870.1171875,-177.24609375
1755830983.1635814,-167.96875,-403.80859375,-717.28515625,-188.96484375
1755830983.1672945,-95.703125,51.26953125,-303.7109375,-124.51171875
1755830983.1710618,-114.74609375,220.703125,-54.19921875,-128.41796875
1755830983.174829,-170.8984375,0.9765625,-266.11328125,-201.66015625
1755830983.1785965,-171.38671875,-130.859375,-528.80859375,-228.515625
1755830983.1823635,-139.6484375,53.7109375,-334.9609375,-165.0390625
1755830983.186131,-143.06640625,184.5703125,-85.9375,-140.13671875
1755830983.1898985,-166.50390625,-124.0234375,-322.75390625,-213.37890625
1755830983.1936655,-176.7578125,-416.50390625,-638.18359375,-262.20703125
1755830983.1974328,-153.3203125,-187.98828125,-469.7265625,-194.3359375
1755830983.2012,-108.88671875,-568.359375,-635.25390625,-136.71875
1755830983.2049675,-146.484375,-602.05078125,-692.3828125,-174.31640625
1755830983.2087348,-187.5,66.40625,-336.42578125,-229.4921875
1755830983.212502,-153.3203125,-103.02734375,-436.5234375,-200.1953125
1755830983.2163124,-121.58203125,113.76953125,-180.17578125,-146.97265625
1755830983.2201228,-141.6015625,472.16796875,88.37890625,-177.734375
1755830983.2239332,-176.7578125,189.453125,-238.76953125,-241.2109375
1755830983.2277436,-169.921875,-342.28515625,-703.125,-242.1875
1755830983.231554,-129.39453125,-199.70703125,-494.62890625,-192.87109375
1755830983.2353644,-129.39453125,137.6953125,-97.16796875,-179.19921875
1755830983.239175,-174.31640625,6.34765625,-276.3671875,-220.21484375
1755830983.2429855,-164.0625,-591.796875,-806.15234375,-216.796875
1755830983.246796,-141.11328125,-703.61328125,-808.10546875,-185.05859375
1755830983.2506063,-153.80859375,91.30859375,-182.12890625,-172.36328125
1755830983.2544167,-179.6875,247.0703125,-92.28515625,-207.03125
1755830983.258227,-196.2890625,-401.85546875,-640.625,-236.328125
1755830983.261947,-166.50390625,-474.609375,-757.32421875,-199.70703125
1755830983.2656665,-135.7421875,285.64453125,-177.24609375,-153.3203125
1755830983.2693863,-145.99609375,277.83203125,-101.5625,-176.7578125
1755830983.273106,-186.03515625,-195.80078125,-554.6875,-224.609375
1755830983.276826,-195.3125,-189.453125,-606.4453125,-221.19140625
1755830983.2805457,-145.01953125,0.48828125,-323.2421875,-187.98828125
1755830983.2842653,-144.04296875,34.66796875,-223.14453125,-207.51953125
1755830983.287985,-199.21875,-565.91796875,-681.15234375,-243.1640625
1755830983.291705,-199.70703125,-743.65234375,-930.6640625,-247.55859375
1755830983.2954245,-178.7109375,116.69921875,-355.46875,-218.26171875
1755830983.2991445,-160.64453125,233.88671875,-152.83203125,-172.8515625
1755830983.302864,-169.43359375,-54.6875,-381.34765625,-194.82421875
1755830983.306749,-206.54296875,-300.78125,-647.4609375,-220.21484375
1755830983.3106344,-163.57421875,-132.32421875,-529.296875,-173.828125
1755830983.3145196,-93.75,69.82421875,-273.4375,-132.32421875
1755830983.318405,-139.16015625,-231.93359375,-482.91015625,-159.1796875
1755830983.32229,-190.4296875,-240.234375,-616.69921875,-209.47265625
1755830983.3261752,-157.71484375,-296.38671875,-645.5078125,-158.203125
1755830983.3300605,-105.46875,-387.20703125,-582.03125,-93.75
1755830983.3339455,-121.58203125,-518.5546875,-643.06640625,-126.953125
1755830983.3378308,-165.0390625,-185.05859375,-522.4609375,-179.19921875
1755830983.341716,-146.484375,-155.76171875,-549.31640625,-167.96875
1755830983.345601,-115.234375,-118.65234375,-429.19921875,-119.62890625
1755830983.3494864,-131.8359375,196.77734375,-156.73828125,-141.11328125
1755830983.3541908,-184.5703125,188.4765625,-238.76953125,-211.42578125
1755830983.358895,-177.734375,-122.55859375,-557.6171875,-213.8671875
1755830983.3635995,-138.18359375,-203.61328125,-539.0625,-162.59765625
1755830983.368304,-128.41796875,100.5859375,-172.8515625,-145.99609375
1755830983.3730085,-162.59765625,-48.33984375,-315.4296875,-194.3359375
1755830983.3777127,-187.01171875,-469.7265625,-741.69921875,-236.328125
1755830983.3824172,-129.39453125,-900.390625,-1000.0,-164.55078125
1755830983.3871214,-81.54296875,-582.03125,-680.17578125,-96.6796875
1755830983.391826,-116.69921875,314.94140625,-67.87109375,-151.3671875
1755830983.3965304,-188.96484375,-87.890625,-452.1484375,-221.19140625
1755830983.4012346,-194.3359375,-385.25390625,-696.2890625,-203.125
1755830983.405939,-147.4609375,244.140625,-158.69140625,-177.734375
1755830983.409788,-153.3203125,484.86328125,71.2890625,-192.3828125
1755830983.4136367,-176.7578125,-122.55859375,-449.70703125,-215.33203125
1755830983.4174857,-148.4375,-437.01171875,-796.875,-196.77734375
1755830983.4213345,-113.76953125,150.87890625,-332.03125,-127.9296875
1755830983.425183,-124.51171875,450.68359375,-39.0625,-136.23046875
1755830983.4290318,-148.4375,-316.40625,-555.6640625,-179.19921875
1755830983.4328809,-162.109375,-997.0703125,-1000.0,-202.1484375
1755830983.4367297,-126.953125,-347.65625,-661.62109375,-168.9453125
1755830983.4405785,-105.46875,539.55078125,36.1328125,-195.80078125
1755830983.4444273,-106.4453125,-122.55859375,-397.4609375,-344.23828125
1755830983.448276,-133.30078125,-777.83203125,-928.22265625,-451.66015625
1755830983.4521248,-123.53515625,-107.421875,-534.66796875,-458.984375
1755830983.4559555,-78.61328125,282.2265625,-182.6171875,-412.109375
1755830983.4597862,-106.4453125,111.81640625,-252.9296875,-437.98828125
1755830983.4636168,-135.7421875,-220.703125,-651.85546875,-492.1875
1755830983.4674475,-126.953125,-164.55078125,-651.85546875,-457.51953125
1755830983.4712782,-92.7734375,125.48828125,-321.2890625,-404.78515625
1755830983.475109,-89.84375,-118.65234375,-436.03515625,-417.48046875
1755830983.4789398,-120.1171875,-397.4609375,-736.81640625,-439.453125
1755830983.4827704,-106.93359375,-267.578125,-806.15234375,-424.8046875
1755830983.486601,-63.96484375,-88.37890625,-581.0546875,-355.95703125
1755830983.4904318,-56.640625,-430.17578125,-673.828125,-315.91796875
1755830983.4942625,-100.09765625,-379.39453125,-729.4921875,-356.4453125
1755830983.4980931,-97.16796875,49.31640625,-539.55078125,-382.32421875
1755830983.5018404,-49.31640625,-128.90625,-621.09375,-316.40625
1755830983.505587,-38.0859375,-53.7109375,-428.22265625,-259.765625
1755830983.5093346,-55.17578125,248.046875,-222.16796875,-297.36328125
1755830983.5130818,-62.98828125,11.23046875,-568.84765625,-324.70703125
1755830983.5168288,-50.29296875,-282.2265625,-795.41015625,-265.13671875
1755830983.520576,-16.11328125,-210.9375,-577.63671875,-187.98828125
1755830983.5243232,-10.7421875,66.89453125,-305.6640625,-184.08203125
1755830983.5280702,-29.296875,143.06640625,-416.015625,-242.67578125
1755830983.5318174,0.0,-503.90625,-852.05078125,-205.078125
1755830983.535565,-0.48828125,-696.77734375,-830.078125,-149.90234375
1755830983.5393116,-4.8828125,202.1484375,-275.87890625,-161.62109375
1755830983.5430589,-2.9296875,151.85546875,-360.83984375,-161.1328125
1755830983.5467663,-9.765625,-484.86328125,-847.65625,-184.5703125
1755830983.5504744,19.04296875,-179.6875,-624.51171875,-157.71484375
1755830983.554182,24.4140625,453.61328125,-115.72265625,-130.37109375
1755830983.5578897,-6.34765625,190.91796875,-332.51953125,-165.0390625
1755830983.5615976,-6.8359375,-433.59375,-848.14453125,-182.6171875
1755830983.5653052,39.55078125,-534.66796875,-877.9296875,-149.4140625
1755830983.5690129,56.15234375,-63.4765625,-440.91796875,-133.30078125
1755830983.5727208,0.48828125,147.94921875,-299.31640625,-194.3359375
1755830983.5764284,-43.45703125,-660.64453125,-862.79296875,-259.27734375
1755830983.580136,-27.34375,-518.06640625,-753.41796875,-249.0234375
1755830983.583844,0.9765625,312.01171875,-136.71875,-197.265625
1755830983.5875516,-7.8125,153.80859375,-207.03125,-216.30859375
1755830983.5913017,-41.015625,-319.3359375,-671.875,-262.6953125
1755830983.5950515,-43.9453125,-205.56640625,-670.41015625,-275.87890625
1755830983.5988016,-17.08984375,268.5546875,-177.734375,-233.3984375
1755830983.6025517,-30.76171875,-27.34375,-258.30078125,-204.1015625
1755830983.6063015,-73.2421875,-583.984375,-768.06640625,-255.859375
1755830983.6100516,-62.01171875,-651.3671875,-921.875,-267.578125
1755830983.6138017,-15.13671875,-171.875,-481.4453125,-189.453125
1755830983.6175516,11.23046875,-164.55078125,-355.46875,-145.5078125
1755830983.6213017,-25.87890625,-706.54296875,-804.19921875,-164.0625
1755830983.6250515,-67.87109375,-303.7109375,-660.64453125,-199.70703125
1755830983.6288016,-7.32421875,-58.10546875,-487.79296875,-155.76171875
1755830983.6325517,25.390625,60.546875,-245.1171875,-108.88671875
1755830983.636347,-23.92578125,145.01953125,-122.55859375,-157.71484375
1755830983.640143,-61.03515625,-20.5078125,-400.87890625,-194.82421875
1755830983.643938,-7.32421875,-203.125,-585.44921875,-141.11328125
1755830983.6477334,42.48046875,-4.39453125,-304.19921875,-86.9140625
1755830983.651529,1.46484375,131.8359375,-178.7109375,-105.95703125
1755830983.6553245,-31.25,-364.2578125,-605.46875,-150.87890625
1755830983.6591198,-18.5546875,-539.0625,-748.046875,-149.90234375
1755830983.6629157,9.765625,-819.3359375,-892.578125,-102.5390625
1755830983.6667109,-35.64453125,-603.02734375,-720.703125,-106.4453125
1755830983.6705062,-104.98046875,69.3359375,-322.75390625,-174.8046875
1755830983.674302,-81.0546875,-324.21875,-646.484375,-201.171875
1755830983.6780972,-41.9921875,-315.4296875,-582.03125,-167.96875
1755830983.6818483,-31.25,290.52734375,-72.265625,-115.72265625
1755830983.6855998,-62.5,263.18359375,-136.71875,-132.8125
1755830983.689351,-86.9140625,-351.5625,-656.73828125,-164.0625
1755830983.6931026,-60.546875,-394.53125,-650.87890625,-135.25390625
1755830983.696854,-36.1328125,188.96484375,-168.9453125,-94.23828125
1755830983.7006054,-34.66796875,101.07421875,-189.453125,-106.93359375
1755830983.704357,-37.59765625,-668.45703125,-761.71875,-134.765625
1755830983.708108,-39.55078125,-771.97265625,-875.48828125,-95.21484375
1755830983.7118592,-3.90625,-23.4375,-285.15625,-45.8984375
1755830983.7156105,1.953125,114.2578125,-105.95703125,-56.640625
1755830983.719362,-21.97265625,-533.203125,-644.04296875,-90.33203125
1755830983.7231133,-28.3203125,-655.2734375,-845.703125,-87.890625
1755830983.727944,1.46484375,88.37890625,-257.8125,-42.96875
1755830983.732775,30.2734375,328.61328125,49.31640625,-22.4609375
1755830983.737606,-8.30078125,-33.69140625,-266.11328125,-74.70703125
1755830983.742437,-31.25,-279.296875,-586.9140625,-101.5625
1755830983.7472675,-0.48828125,-9.765625,-351.5625,-58.10546875
1755830983.7520986,27.34375,93.75,-98.6328125,-24.90234375
1755830983.7569294,10.25390625,-554.6875,-589.35546875,-47.36328125
1755830983.7617602,-16.11328125,-701.66015625,-864.74609375,-81.54296875
1755830983.766591,-0.9765625,-86.42578125,-423.33984375,-71.77734375
1755830983.771422,-8.30078125,115.72265625,-125.48828125,-31.73828125
1755830983.776253,-23.92578125,-8.7890625,-165.0390625,-64.94140625
1755830983.7810838,-41.9921875,-291.9921875,-439.94140625,-128.41796875
1755830983.784789,-45.8984375,-323.73046875,-486.81640625,-128.90625
1755830983.7884946,5.37109375,-166.9921875,-285.64453125,-45.41015625
1755830983.7922,8.7890625,-233.88671875,-286.62109375,-20.99609375
1755830983.7959054,-51.7578125,-81.0546875,-297.36328125,-95.703125
1755830983.7996106,-52.734375,-205.56640625,-406.73828125,-102.05078125
1755830983.803316,-16.11328125,-605.95703125,-602.05078125,-47.8515625
1755830983.8070216,-15.625,-564.453125,-514.6484375,-36.62109375
1755830983.810727,-47.8515625,-11.71875,-185.05859375,-78.125
1755830983.814432,-55.6640625,-105.46875,-345.703125,-97.16796875
1755830983.8181376,-23.4375,-399.90234375,-509.765625,-59.08203125
1755830983.8218431,10.25390625,-38.0859375,-183.10546875,0.0
1755830983.8255484,7.32421875,269.04296875,13.18359375,-15.625
1755830983.8294966,3.90625,-101.5625,-353.02734375,-50.29296875
1755830983.8334446,36.62109375,-373.53515625,-564.94140625,-13.671875
1755830983.8373928,60.546875,-133.30078125,-243.65234375,29.78515625
1755830983.841341,19.04296875,104.4921875,-35.64453125,-5.859375
1755830983.845289,-24.90234375,-47.8515625,-273.4375,-58.10546875
1755830983.8492372,2.44140625,-803.22265625,-879.39453125,-29.296875
1755830983.8531854,20.5078125,-615.72265625,-645.99609375,15.625
1755830983.8571334,21.97265625,349.12109375,155.76171875,1.46484375
1755830983.8610816,-2.44140625,79.1015625,-129.39453125,-46.38671875
1755830983.8650298,-23.92578125,-415.0390625,-568.359375,-59.08203125
1755830983.8689778,5.859375,8.7890625,-241.69921875,-21.484375
1755830983.872926,22.4609375,467.28515625,186.03515625,1.953125
1755830983.877816,-7.32421875,21.97265625,-136.23046875,-22.94921875
1755830983.8827057,-37.109375,-449.21875,-604.98046875,-56.15234375
1755830983.8875957,-47.36328125,7.8125,-273.92578125,-38.0859375
1755830983.8924854,-18.5546875,513.18359375,214.35546875,12.20703125
1755830983.897375,-0.48828125,137.6953125,-37.59765625,-7.8125
1755830983.902265,-50.29296875,-578.125,-654.296875,-66.89453125
1755830983.907155,-67.87109375,-639.6484375,-730.46875,-59.5703125
1755830983.912045,-51.7578125,-33.203125,-198.2421875,-26.3671875
1755830983.9169347,-26.85546875,-120.1171875,-239.2578125,-35.15625
1755830983.9218247,-55.17578125,-1000.0,-987.79296875,-78.125
1755830983.9267144,-66.89453125,-501.953125,-680.6640625,-74.21875
1755830983.9316044,-4.8828125,295.8984375,-31.25,-16.6015625
1755830983.934186,-18.06640625,208.49609375,-3.90625,-37.59765625
1755830983.936767,-45.41015625,-28.3203125,-274.4140625,-81.0546875
1755830983.9393487,-61.03515625,-143.06640625,-456.54296875,-80.078125
1755830983.9419303,-35.15625,-45.41015625,-296.875,-41.9921875
1755830983.944512,13.671875,-1.953125,-188.4765625,3.41796875
1755830983.9470932,11.71875,-275.390625,-390.13671875,-12.20703125
1755830983.9496746,-19.53125,-388.671875,-563.96484375,-52.24609375
1755830983.9522562,2.44140625,-202.63671875,-457.03125,-3.41796875
1755830983.9548378,26.3671875,-567.87109375,-597.65625,56.15234375
1755830983.9574192,-37.59765625,-426.26953125,-469.7265625,9.765625
1755830983.9600005,-65.91796875,38.0859375,-262.20703125,-38.0859375
1755830983.962582,-54.19921875,-212.890625,-469.23828125,-36.1328125
1755830983.967623,-40.52734375,-509.765625,-540.52734375,-1.46484375
1755830983.972664,-50.29296875,-14.6484375,-142.08984375,-10.25390625
1755830983.977705,-80.56640625,143.5546875,-168.9453125,-54.6875
1755830983.982746,-76.171875,-366.69921875,-594.23828125,-56.640625
1755830983.987787,-34.1796875,-183.59375,-356.4453125,-15.13671875
1755830983.992828,-45.41015625,1.953125,-94.23828125,-3.90625
1755830983.997869,-78.125,-129.39453125,-244.140625,-66.89453125
1755830984.00291,-83.984375,-586.9140625,-710.9375,-75.68359375
1755830984.007951,-72.75390625,-712.40234375,-785.64453125,-20.01953125
1755830984.012992,-56.15234375,277.34375,30.76171875,-5.859375
1755830984.018033,-78.125,255.859375,46.875,-38.57421875
1755830984.023074,-93.26171875,-520.5078125,-601.5625,-64.453125
1755830984.025576,-64.453125,-399.4140625,-539.55078125,-47.8515625
1755830984.0280776,-29.296875,255.37109375,-0.48828125,6.8359375
1755830984.0305796,-46.875,320.3125,94.7265625,-2.44140625
1755830984.0330815,-59.5703125,-392.578125,-480.46875,-42.48046875
1755830984.0355835,-21.97265625,-463.37890625,-572.75390625,-12.20703125
1755830984.0380857,-6.8359375,28.3203125,-102.05078125,34.66796875
1755830984.0405872,-20.99609375,-22.4609375,-43.9453125,27.83203125
1755830984.0430892,-49.8046875,-453.61328125,-494.62890625,-35.64453125
1755830984.045591,-50.78125,-483.3984375,-624.0234375,-47.36328125
1755830984.0480928,-13.18359375,55.6640625,-168.9453125,7.8125
1755830984.0505948,1.46484375,194.82421875,30.76171875,14.6484375
1755830984.0530968,-37.109375,-560.546875,-576.171875,-36.1328125
1755830984.0580852,-61.5234375,-646.484375,-799.31640625,-72.75390625
1755830984.0630736,-28.80859375,21.97265625,-243.1640625,-38.0859375
1755830984.068062,-19.53125,-28.80859375,-102.5390625,5.37109375
1755830984.0730505,-56.15234375,-347.16796875,-366.2109375,-20.5078125
1755830984.078039,-78.125,-207.51953125,-411.62109375,-67.87109375
1755830984.0830274,-40.0390625,-238.28125,-404.78515625,-46.875
1755830984.0880156,10.25390625,-490.72265625,-471.6796875,5.859375
1755830984.093004,-23.4375,-649.4140625,-597.65625,-15.625
1755830984.0979924,-84.9609375,-202.1484375,-402.83203125,-83.49609375
1755830984.1029809,-69.82421875,-47.36328125,-336.42578125,-69.82421875
1755830984.1079693,-25.87890625,-70.80078125,-267.578125,-28.80859375
1755830984.1129577,-35.64453125,187.98828125,34.1796875,-17.578125
1755830984.1165369,-98.6328125,181.640625,-51.7578125,-72.75390625
1755830984.120116,-81.0546875,-141.11328125,-430.6640625,-71.77734375
1755830984.1236951,-47.8515625,-103.02734375,-300.29296875,-16.6015625
1755830984.1272745,-53.22265625,289.0625,70.80078125,-16.11328125
1755830984.1308534,-87.890625,275.87890625,35.64453125,-75.68359375
1755830984.1344328,-104.98046875,-281.25,-418.9453125,-102.05078125
1755830984.138012,-55.6640625,-522.4609375,-566.40625,-56.15234375
1755830984.141591,-35.64453125,-64.94140625,-141.6015625,-28.3203125
1755830984.1451702,-87.40234375,302.734375,63.96484375,-72.75390625
1755830984.1487494,-128.41796875,-10.7421875,-233.88671875,-139.6484375
1755830984.1523285,-103.515625,-843.26171875,-869.140625,-88.8671875
1755830984.1559076,-66.40625,-506.34765625,-592.28515625,-23.4375
1755830984.1597817,-77.63671875,470.21484375,189.453125,-65.91796875
1755830984.163655,-93.26171875,-77.1484375,-275.390625,-99.12109375
1755830984.1675286,-104.00390625,-354.4921875,-475.5859375,-101.07421875
1755830984.1714025,-73.73046875,242.1875,25.87890625,-72.75390625
1755830984.1752765,-72.265625,448.73046875,224.609375,-44.921875
1755830984.17915,-114.74609375,-369.140625,-401.3671875,-87.890625
1755830984.1830237,-131.34765625,-819.3359375,-869.62890625,-131.34765625
1755830984.1868973,-114.74609375,-1.46484375,-199.70703125,-103.515625
1755830984.190771,-97.16796875,300.78125,212.890625,-83.0078125
1755830984.1946447,-101.5625,-416.50390625,-383.7890625,-78.61328125
1755830984.1985185,-115.72265625,-784.66796875,-847.16796875,-91.30859375
1755830984.202392,-91.796875,-59.08203125,-303.22265625,-67.3828125
1755830984.2061596,-50.29296875,394.04296875,205.56640625,-17.08984375
1755830984.209927,-59.08203125,191.40625,110.83984375,-38.57421875
1755830984.2136946,-111.81640625,-129.8828125,-267.08984375,-92.7734375
1755830984.2174623,-134.765625,-5.37109375,-219.23828125,-93.75
1755830984.2212298,-98.14453125,247.0703125,100.5859375,-46.875
1755830984.2249973,-99.12109375,-45.41015625,-2.9296875,-36.1328125
1755830984.2287648,-126.46484375,-324.70703125,-318.359375,-85.44921875
1755830984.2325325,-101.5625,-155.2734375,-336.42578125,-90.33203125
1755830984.2363,-51.26953125,84.47265625,-57.12890625,-29.78515625
1755830984.2400675,-47.8515625,-119.140625,-75.68359375,-22.4609375
1755830984.243835,-77.63671875,-193.359375,-164.0625,-73.2421875
1755830984.2476025,-91.30859375,-219.23828125,-260.7421875,-80.56640625
1755830984.2526298,-47.8515625,-315.4296875,-302.24609375,-17.08984375
1755830984.2576573,-23.92578125,-212.890625,-136.23046875,1.46484375
1755830984.2626848,-60.546875,67.87109375,9.27734375,-48.828125
1755830984.267712,-86.9140625,-22.94921875,-128.41796875,-71.77734375
1755830984.2727394,-47.36328125,-264.16015625,-264.16015625,-39.0625
1755830984.277767,1.46484375,-209.47265625,-37.59765625,5.37109375
1755830984.2827945,-18.5546875,44.43359375,188.96484375,-27.83203125
1755830984.2878218,-63.96484375,107.421875,96.19140625,-74.70703125
1755830984.292849,-45.41015625,-572.75390625,-479.4921875,-36.62109375
1755830984.2978766,-23.4375,-730.95703125,-584.47265625,-4.8828125
1755830984.302904,-68.359375,180.6640625,191.89453125,-33.203125
1755830984.3079314,-78.61328125,135.25390625,115.72265625,-64.453125
1755830984.3118088,-68.359375,-551.26953125,-466.796875,-64.94140625
1755830984.3156865,-46.38671875,-325.1953125,-199.21875,-39.0625
1755830984.319564,-38.57421875,187.5,292.96875,-11.71875
1755830984.3234413,-84.47265625,14.16015625,80.078125,-41.015625
1755830984.327319,-78.61328125,-582.51953125,-516.6015625,-71.77734375
1755830984.3311963,-57.12890625,-665.52734375,-530.2734375,-44.43359375
1755830984.3350737,-40.0390625,-47.36328125,66.40625,-26.3671875
1755830984.338951,-68.359375,106.93359375,171.875,-75.1953125
1755830984.3428288,-79.1015625,-557.6171875,-469.7265625,-121.58203125
1755830984.3467062,-35.64453125,-430.17578125,-439.94140625,-125.0
1755830984.3505838,3.90625,273.92578125,196.2890625,-74.21875
1755830984.3544612,-0.48828125,43.9453125,119.62890625,-89.35546875
1755830984.3568468,-57.12890625,-739.74609375,-635.7421875,-166.015625
1755830984.3592322,-46.38671875,-561.03515625,-636.23046875,-151.3671875
1755830984.3616176,-7.8125,194.3359375,73.73046875,-109.86328125
1755830984.3640032,-8.7890625,182.12890625,167.96875,-128.90625
1755830984.3663888,-36.1328125,-239.2578125,-188.96484375,-168.45703125
1755830984.3687742,-77.1484375,-489.2578125,-472.16796875,-167.48046875
1755830984.3711596,-41.9921875,-404.296875,-344.23828125,-124.0234375
1755830984.3735452,-33.69140625,-364.74609375,-223.6328125,-104.98046875
1755830984.3759308,-75.1953125,-358.88671875,-307.6171875,-157.71484375
1755830984.3783162,-70.3125,-285.64453125,-368.65234375,-188.4765625
1755830984.3807015,-70.3125,-53.7109375,-205.078125,-159.66796875
1755830984.3830872,-49.8046875,-256.34765625,-213.37890625,-112.3046875
1755830984.3868449,-53.22265625,-811.03515625,-641.11328125,-130.859375
1755830984.3906026,-79.1015625,-275.390625,-384.765625,-174.31640625
1755830984.3943603,-51.26953125,18.5546875,-110.83984375,-138.18359375
1755830984.398118,0.0,76.66015625,34.1796875,-96.6796875
1755830984.4018755,-31.73828125,245.60546875,136.71875,-130.37109375
1755830984.4056334,-70.3125,-156.73828125,-219.23828125,-176.7578125
1755830984.409391,-43.9453125,-515.13671875,-499.51171875,-158.69140625
1755830984.4131486,-26.85546875,-751.953125,-627.9296875,-114.2578125
1755830984.4169064,-32.2265625,-376.46484375,-263.671875,-137.20703125
1755830984.420664,-62.98828125,243.1640625,119.62890625,-196.2890625
1755830984.4244218,-79.58984375,-226.5625,-325.68359375,-196.77734375
1755830984.4281795,-62.5,-445.80078125,-417.48046875,-155.2734375
1755830984.4319203,-72.265625,307.12890625,230.46875,-151.3671875
1755830984.435661,-87.40234375,526.85546875,365.72265625,-177.24609375
1755830984.4394016,-77.63671875,-189.94140625,-255.859375,-173.828125
1755830984.4431424,-55.6640625,-251.953125,-317.3828125,-127.9296875
1755830984.4468832,-21.484375,413.0859375,262.20703125,-65.91796875
1755830984.450624,-29.78515625,270.5078125,244.140625,-81.0546875
1755830984.4543648,-55.6640625,-569.3359375,-503.90625,-125.48828125
1755830984.4581056,-52.24609375,-775.87890625,-801.26953125,-107.421875
1755830984.4618464,-34.66796875,196.77734375,64.94140625,-71.2890625
1755830984.465587,-27.34375,570.80078125,451.66015625,-62.01171875
1755830984.4693277,-59.5703125,-195.3125,-180.17578125,-112.3046875
1755830984.4730685,-64.453125,-461.9140625,-455.56640625,-120.60546875
1755830984.4779034,-23.4375,183.59375,46.875,-70.3125
1755830984.4827385,-16.11328125,461.9140625,327.63671875,-66.40625
1755830984.4875731,-35.64453125,-235.83984375,-214.35546875,-92.7734375
1755830984.492408,-36.62109375,-464.84375,-493.1640625,-107.421875
1755830984.497243,-38.0859375,129.39453125,-50.29296875,-71.77734375
1755830984.502078,-39.0625,216.30859375,166.50390625,-47.8515625
1755830984.506913,-59.08203125,-473.14453125,-415.0390625,-106.93359375
1755830984.5117478,-87.890625,-636.71875,-687.01171875,-152.34375
1755830984.5165827,-67.3828125,95.703125,-91.796875,-110.83984375
1755830984.5214176,-26.3671875,337.890625,193.84765625,-68.84765625
1755830984.5262525,-36.1328125,183.59375,115.72265625,-77.1484375
1755830984.5310874,-66.89453125,16.6015625,-141.6015625,-138.671875
1755830984.5362575,-39.0625,135.25390625,-118.1640625,-131.34765625
1755830984.541428,21.484375,159.66796875,49.31640625,-47.8515625
1755830984.5465982,12.6953125,-5.859375,-36.1328125,-37.109375
1755830984.5517683,-27.83203125,67.87109375,-125.48828125,-96.6796875
1755830984.5569386,-15.625,-1.953125,-245.1171875,-95.703125
1755830984.562109,30.76171875,-338.37890625,-370.60546875,-14.6484375
1755830984.567279,58.10546875,-658.69140625,-519.53125,22.4609375
1755830984.5724494,26.85546875,-121.58203125,-226.07421875,-41.50390625
1755830984.5776196,1.46484375,50.78125,-209.9609375,-77.63671875
1755830984.58279,18.06640625,-164.0625,-314.453125,-27.34375
1755830984.58796,35.15625,201.171875,95.703125,12.6953125
1755830984.5931304,14.16015625,412.109375,233.3984375,-34.1796875
1755830984.595616,-44.921875,10.7421875,-198.2421875,-84.47265625
1755830984.5981016,-39.55078125,-135.7421875,-286.62109375,-80.078125
1755830984.6005874,-1.46484375,272.4609375,96.6796875,-51.7578125
1755830984.603073,-30.76171875,440.91796875,226.07421875,-42.48046875
1755830984.6055586,-65.91796875,-80.56640625,-215.33203125,-74.21875
1755830984.608044,-37.59765625,-630.37109375,-651.3671875,-70.80078125
1755830984.61053,-22.94921875,-383.7890625,-379.8828125,-33.203125
1755830984.6130157,-43.45703125,322.75390625,175.29296875,-43.45703125
1755830984.6155012,-80.56640625,74.70703125,-82.51953125,-72.265625
1755830984.617987,-71.77734375,-537.59765625,-600.5859375,-71.2890625
1755830984.6204724,-33.203125,-58.10546875,-222.16796875,-49.8046875
1755830984.6229582,-22.94921875,448.73046875,233.3984375,-28.3203125
1755830984.6304054,-29.296875,-20.01953125,-132.32421875,-48.828125
1755830984.637853,-30.76171875,-804.19921875,-801.26953125,-93.26171875
1755830984.6453,-47.8515625,-404.78515625,-485.3515625,-86.9140625
1755830984.6527474,-29.296875,382.8125,206.0546875,-32.2265625
1755830984.6601946,-41.9921875,145.5078125,67.87109375,-52.24609375
1755830984.667642,-68.359375,-615.72265625,-540.52734375,-84.47265625
1755830984.6750891,-37.59765625,-439.94140625,-447.265625,-59.5703125
1755830984.6825364,9.765625,243.65234375,184.08203125,-17.578125
1755830984.6899838,18.5546875,-217.28515625,-110.3515625,-10.7421875
1755830984.697431,-32.71484375,-958.49609375,-889.6484375,-58.59375
1755830984.7048783,-40.52734375,-323.73046875,-497.55859375,-88.8671875
1755830984.7123256,16.6015625,326.66015625,157.71484375,-28.80859375
1755830984.7126746,14.16015625,290.0390625,241.2109375,5.859375
1755830984.7130234,-18.5546875,134.27734375,26.85546875,-50.78125
1755830984.7133725,-38.57421875,15.625,-180.17578125,-70.3125
1755830984.7137215,-19.53125,79.1015625,-75.68359375,-34.66796875
1755830984.7140703,5.859375,157.2265625,142.08984375,-6.34765625
1755830984.7144194,-30.2734375,-73.2421875,-4.8828125,-42.96875
1755830984.7147684,-54.6875,-321.77734375,-303.7109375,-93.26171875
1755830984.7151172,-36.1328125,-168.9453125,-213.8671875,-48.828125
1755830984.7154665,-18.06640625,-30.2734375,-24.90234375,-11.71875
1755830984.7158153,-48.33984375,96.19140625,65.4296875,-65.91796875
1755830984.716164,-70.80078125,-107.91015625,-141.6015625,-119.62890625
1755830984.7165132,-61.03515625,-443.359375,-380.37109375,-110.3515625
1755830984.721233,-51.26953125,-258.7890625,-177.734375,-75.1953125
1755830984.725952,-54.6875,276.3671875,209.9609375,-77.1484375
1755830984.7306716,-82.51953125,280.2734375,156.25,-136.23046875
1755830984.7353911,-81.54296875,-395.01953125,-383.30078125,-129.39453125
1755830984.7401106,-56.15234375,-333.49609375,-280.2734375,-51.26953125
1755830984.74483,-45.8984375,87.890625,138.671875,-36.62109375
1755830984.7495496,-54.6875,-62.98828125,-44.921875,-85.44921875
1755830984.7542691,-42.48046875,-403.3203125,-436.03515625,-82.51953125
1755830984.7589886,35.15625,-1000.0,-1000.0,-6.34765625
1755830984.763708,32.2265625,-489.2578125,-481.4453125,16.6015625
1755830984.7684276,-18.5546875,333.984375,212.890625,-23.92578125
1755830984.773147,-5.37109375,-211.42578125,-313.96484375,-44.921875
1755830984.7757568,26.85546875,-94.7265625,-225.5859375,-27.83203125
1755830984.7783666,52.24609375,383.30078125,277.34375,5.859375
1755830984.7809763,36.62109375,351.07421875,291.015625,7.32421875
1755830984.783586,-8.7890625,-158.69140625,-214.35546875,-61.5234375
1755830984.7861958,0.0,-284.1796875,-401.3671875,-75.1953125
1755830984.7888055,41.015625,125.9765625,7.32421875,-8.30078125
1755830984.7914157,27.83203125,42.96875,38.0859375,0.0
1755830984.7940252,-8.7890625,-207.51953125,-248.046875,-50.78125
1755830984.796635,-19.04296875,-63.4765625,-219.7265625,-74.21875
1755830984.7992446,22.94921875,394.04296875,168.45703125,-41.9921875
1755830984.8018544,13.18359375,494.140625,320.3125,-23.92578125
1755830984.804464,-41.015625,-383.30078125,-364.74609375,-59.5703125
1755830984.8081076,-47.36328125,-462.890625,-575.68359375,-86.9140625
1755830984.8117511,-14.16015625,355.95703125,37.59765625,-38.57421875
1755830984.8153946,9.27734375,425.29296875,207.51953125,-7.8125
1755830984.8190382,-37.109375,217.7734375,77.63671875,-55.17578125
1755830984.8226817,-70.80078125,-99.12109375,-232.91015625,-98.14453125
1755830984.826325,-45.41015625,-232.91015625,-337.890625,-68.359375
1755830984.8299685,3.41796875,-158.203125,-148.4375,25.390625
1755830984.833612,8.30078125,-689.453125,-525.390625,39.0625
1755830984.8372557,-33.69140625,-299.8046875,-349.12109375,-29.78515625
1755830984.840899,-26.85546875,284.66796875,46.38671875,0.48828125
1755830984.8445425,15.625,305.6640625,133.7890625,86.42578125
1755830984.848186,22.4609375,516.6015625,353.02734375,103.02734375
1755830984.8531818,-14.16015625,396.97265625,176.26953125,61.5234375
1755830984.8581774,-36.62109375,15.625,-185.05859375,58.10546875
1755830984.8631732,-1.953125,57.12890625,-67.87109375,110.83984375
1755830984.868169,15.13671875,480.95703125,313.96484375,114.74609375
1755830984.873165,-21.484375,377.44140625,178.7109375,70.80078125
1755830984.8781605,-35.64453125,-76.66015625,-191.40625,50.29296875
1755830984.8831563,17.578125,-677.24609375,-602.05078125,83.49609375
1755830984.888152,25.390625,-598.14453125,-457.51953125,113.28125
1755830984.8931477,-16.6015625,240.234375,123.046875,73.73046875
1755830984.8981435,-32.71484375,3.41796875,-151.3671875,37.59765625
1755830984.903139,-40.52734375,-307.6171875,-337.40234375,30.76171875
1755830984.908135,-36.62109375,234.375,154.296875,51.7578125
1755830984.913056,-57.6171875,563.96484375,404.78515625,40.0390625
1755830984.917977,-70.80078125,22.4609375,-82.03125,8.7890625
1755830984.9228983,-51.26953125,-255.859375,-324.21875,27.83203125
1755830984.9278193,-28.80859375,288.0859375,129.39453125,44.43359375
1755830984.9327402,-39.55078125,575.1953125,413.0859375,32.2265625
1755830984.9376614,-37.59765625,-169.43359375,-158.69140625,14.16015625
1755830984.9425826,-40.52734375,-746.58203125,-708.0078125,1.46484375
1755830984.9475036,-34.66796875,-10.25390625,-172.36328125,41.9921875
1755830984.9524243,-11.23046875,568.359375,356.93359375,66.89453125
1755830984.9573455,-36.62109375,-130.859375,-172.36328125,6.34765625
1755830984.962267,-63.4765625,-908.203125,-880.859375,-24.90234375
1755830984.967188,-46.38671875,-106.93359375,-279.78515625,6.34765625
1755830984.969774,-28.80859375,606.4453125,368.1640625,44.43359375
1755830984.97236,-38.0859375,66.40625,-6.34765625,34.1796875
1755830984.974946,-49.31640625,-328.61328125,-392.578125,8.7890625
1755830984.977532,-40.0390625,12.20703125,-201.66015625,20.99609375
1755830984.980118,-8.30078125,315.91796875,101.5625,55.6640625
1755830984.9827042,14.6484375,86.42578125,39.0625,58.59375
1755830984.9852903,-32.71484375,-370.60546875,-393.06640625,6.8359375
1755830984.9878762,-44.921875,-212.890625,-389.16015625,0.48828125
1755830984.9904623,5.859375,124.51171875,-47.36328125,28.80859375
1755830984.9930484,14.6484375,93.75,9.27734375,36.62109375
1755830984.9956343,-38.57421875,37.59765625,-134.765625,2.44140625
1755830984.9982204,-46.38671875,109.86328125,-166.50390625,-21.97265625
1755830985.002024,5.37109375,1.46484375,-151.85546875,37.59765625
1755830985.0058274,18.06640625,-341.796875,-291.50390625,77.1484375
1755830985.0096312,-24.90234375,-63.4765625,-146.97265625,1.46484375
1755830985.0134346,-26.3671875,135.25390625,-145.99609375,-44.921875
1755830985.017238,-4.39453125,-170.41015625,-354.98046875,11.71875
1755830985.0210416,-1.953125,-243.1640625,-246.58203125,41.50390625
1755830985.0248451,-22.94921875,-5.859375,-56.640625,19.04296875
1755830985.0286486,-52.734375,83.49609375,-148.92578125,-24.90234375
1755830985.032452,-35.15625,-470.21484375,-575.68359375,-26.85546875
1755830985.0362558,4.39453125,-537.109375,-492.1875,26.3671875
1755830985.040059,-13.18359375,397.4609375,250.48828125,18.5546875
1755830985.0438628,-40.0390625,235.3515625,10.7421875,-17.578125
1755830985.0500348,-32.71484375,-279.296875,-469.7265625,-13.18359375
1755830985.0562067,8.30078125,34.66796875,-159.66796875,14.16015625
1755830985.0623786,20.5078125,545.41015625,309.08203125,29.78515625
1755830985.0685506,-5.859375,316.89453125,144.04296875,11.23046875
1755830985.0747223,3.90625,-416.50390625,-471.19140625,14.6484375
1755830985.0808945,41.9921875,-543.9453125,-530.76171875,68.359375
1755830985.087067,89.35546875,37.109375,-3.90625,106.4453125
1755830985.0932386,85.9375,160.15625,41.50390625,67.87109375
1755830985.0994103,52.24609375,-727.5390625,-747.55859375,47.8515625
1755830985.1055825,53.22265625,-615.72265625,-695.80078125,65.91796875
1755830985.1117544,87.890625,461.9140625,233.3984375,103.515625
1755830985.1179264,98.6328125,248.046875,127.44140625,97.65625
1755830985.1191907,76.171875,-333.0078125,-384.765625,39.0625
1755830985.1204553,93.26171875,-94.23828125,-226.5625,52.24609375
1755830985.1217196,124.51171875,312.5,137.6953125,125.9765625
1755830985.1229842,92.7734375,105.46875,31.73828125,117.1875
1755830985.1242485,44.921875,-212.890625,-269.53125,43.45703125
1755830985.125513,45.41015625,-351.07421875,-427.24609375,49.8046875
1755830985.1267774,76.171875,-256.34765625,-253.41796875,90.8203125
1755830985.1280415,101.5625,-340.8203125,-204.1015625,94.23828125
1755830985.1293063,58.10546875,-470.703125,-376.953125,39.0625
1755830985.130571,29.296875,-124.0234375,-303.22265625,18.06640625
1755830985.1318352,66.40625,89.84375,-121.58203125,78.61328125
1755830985.1330996,73.2421875,78.61328125,31.25,100.09765625
1755830985.1379342,55.17578125,68.84765625,-1.46484375,38.57421875
1755830985.1427686,38.0859375,17.578125,-177.24609375,-19.04296875
1755830985.1476033,42.48046875,102.05078125,-117.67578125,8.30078125
1755830985.152438,111.328125,-271.484375,-238.28125,71.77734375
1755830985.1572723,92.28515625,-711.42578125,-502.44140625,44.43359375
1755830985.162107,0.9765625,-346.19140625,-313.96484375,-24.90234375
1755830985.1669416,33.69140625,-278.3203125,-292.48046875,6.34765625
1755830985.171776,96.6796875,-500.9765625,-379.39453125,74.21875
1755830985.1766107,70.80078125,-143.06640625,-95.703125,56.640625
1755830985.1814454,17.578125,303.7109375,194.3359375,-18.5546875
1755830985.1862798,18.06640625,-195.80078125,-208.49609375,-24.90234375
1755830985.1911144,38.0859375,-193.359375,-200.68359375,2.44140625
1755830985.1949167,47.36328125,450.1953125,293.45703125,17.578125
1755830985.198719,15.13671875,561.03515625,328.125,-12.6953125
1755830985.202521,-1.46484375,-22.4609375,-144.53125,-41.9921875
1755830985.2063234,20.01953125,-126.953125,-236.328125,-0.9765625
1755830985.2101257,12.20703125,470.21484375,250.0,30.2734375
1755830985.213928,1.953125,350.5859375,240.234375,5.859375
1755830985.2177303,-22.4609375,-496.58203125,-448.73046875,-17.08984375
1755830985.2215326,-7.8125,-706.0546875,-739.2578125,13.671875
1755830985.2253346,25.87890625,194.3359375,-18.06640625,54.6875
1755830985.229137,10.25390625,584.9609375,345.703125,55.6640625
1755830985.2329392,-10.25390625,-61.5234375,-216.796875,9.27734375
1755830985.2367415,-7.32421875,-259.27734375,-429.19921875,0.9765625
1755830985.2394712,11.23046875,271.97265625,82.51953125,55.17578125
1755830985.2422009,11.23046875,312.98828125,221.19140625,70.80078125
1755830985.2449307,2.44140625,-229.98046875,-250.0,28.80859375
1755830985.2476604,-17.08984375,-337.40234375,-480.95703125,21.97265625
1755830985.25039,-5.859375,187.01171875,-60.546875,72.75390625
1755830985.25312,28.3203125,321.77734375,215.33203125,83.49609375
1755830985.2558496,10.7421875,-300.78125,-261.23046875,45.41015625
1755830985.2585793,-31.73828125,-440.91796875,-529.296875,1.46484375
1755830985.261309,-18.06640625,265.625,-24.90234375,12.20703125
1755830985.2640386,20.01953125,495.1171875,286.1328125,72.265625
1755830985.2667685,1.46484375,70.80078125,41.015625,58.59375
1755830985.269498,-60.546875,-136.71875,-252.9296875,-8.7890625
1755830985.2743676,-46.38671875,187.01171875,-86.42578125,2.44140625
1755830985.279237,4.8828125,274.4140625,120.1171875,51.7578125
1755830985.2841065,-5.37109375,247.0703125,192.3828125,62.01171875
1755830985.288976,-43.45703125,48.33984375,-15.13671875,7.8125
1755830985.2938454,-35.15625,-187.01171875,-275.390625,-20.5078125
1755830985.2987146,-5.37109375,-163.0859375,-157.2265625,23.92578125
1755830985.303584,-15.625,-707.51953125,-493.65234375,26.85546875
1755830985.3084536,-71.77734375,-387.6953125,-352.5390625,-51.7578125
1755830985.313323,-79.1015625,47.8515625,-100.09765625,-65.91796875
1755830985.3181925,-40.52734375,-79.1015625,-159.66796875,-17.578125
1755830985.323062,-32.71484375,342.28515625,268.5546875,-6.34765625
1755830985.3279314,-52.734375,535.15625,386.71875,-23.4375
1755830985.335375,-63.96484375,117.1875,-6.8359375,-61.03515625
1755830985.3428185,-41.50390625,-90.33203125,-132.8125,-30.76171875
1755830985.3502622,-1.46484375,241.2109375,175.78125,31.25
1755830985.3577058,-6.8359375,425.78125,297.8515625,7.8125
1755830985.3651493,-48.828125,-23.92578125,-124.51171875,-45.41015625
1755830985.372593,-50.78125,-481.93359375,-444.3359375,-66.89453125
1755830985.3800366,-7.32421875,-268.06640625,-144.04296875,-18.5546875
1755830985.38748,-15.13671875,148.92578125,186.03515625,-2.9296875
1755830985.3949237,-55.6640625,111.81640625,76.66015625,-47.36328125
1755830985.4023674,-41.9921875,-758.7890625,-728.02734375,-2.44140625
1755830985.4098108,6.8359375,-607.91015625,-612.3046875,39.0625
1755830985.4172544,15.625,527.83203125,424.31640625,20.99609375
1755830985.4176126,-26.85546875,249.51171875,187.5,-15.625
1755830985.417971,-32.2265625,-318.84765625,-338.37890625,-20.01953125
1755830985.418329,3.90625,23.4375,-103.515625,11.23046875
1755830985.418687,-4.39453125,476.07421875,365.234375,-5.37109375
1755830985.4190454,-31.73828125,238.76953125,247.0703125,-34.1796875
1755830985.4194036,-54.6875,-436.5234375,-356.93359375,-72.265625
1755830985.4197617,-53.22265625,-264.16015625,-283.69140625,-74.21875
1755830985.42012,-29.78515625,406.73828125,254.8828125,-30.2734375
1755830985.420478,-45.41015625,207.51953125,176.26953125,-38.57421875
1755830985.4208362,-69.3359375,-390.625,-300.29296875,-82.51953125
1755830985.4211946,-66.89453125,-305.6640625,-347.16796875,-73.2421875
1755830985.421553,-47.8515625,163.0859375,35.64453125,-23.4375
1755830985.425026,-43.45703125,114.74609375,103.515625,-43.9453125
1755830985.4284992,-72.265625,-107.91015625,-125.9765625,-105.46875
1755830985.4319725,-88.37890625,-164.55078125,-244.62890625,-96.19140625
1755830985.4354458,-67.3828125,7.32421875,-89.84375,-41.015625
1755830985.438919,-39.55078125,-29.78515625,-9.765625,-12.6953125
1755830985.4423923,-76.171875,-382.32421875,-275.87890625,-58.59375
1755830985.4458654,-115.234375,-371.58203125,-360.3515625,-127.44140625
1755830985.449339,-82.51953125,62.5,-40.52734375,-97.16796875
1755830985.452812,-32.71484375,-308.59375,-211.42578125,-37.59765625
1755830985.4562852,-72.265625,-940.4296875,-710.44921875,-78.61328125
1755830985.4597583,-111.81640625,-267.08984375,-360.83984375,-142.08984375
1755830985.4632318,-71.2890625,41.015625,-127.9296875,-112.79296875
1755830985.4695344,-49.8046875,-103.02734375,-109.375,-42.96875
1755830985.4758372,-47.8515625,110.3515625,84.47265625,-45.8984375
1755830985.48214,-70.3125,277.83203125,84.47265625,-104.00390625
1755830985.488443,-62.5,-218.26171875,-343.75,-85.44921875
1755830985.4947453,-5.859375,-477.5390625,-426.26953125,-8.30078125
1755830985.501048,-2.44140625,30.2734375,35.64453125,0.0
1755830985.507351,-46.875,51.7578125,4.8828125,-56.640625
1755830985.5136535,-41.015625,-610.83984375,-588.8671875,-65.91796875
1755830985.519956,-37.59765625,-625.0,-575.68359375,-31.73828125
1755830985.526259,-35.64453125,351.07421875,286.1328125,-19.53125
1755830985.5325618,-33.69140625,458.984375,352.05078125,-41.015625
1755830985.5388644,-62.98828125,-165.52734375,-252.9296875,-89.35546875
1755830985.5400348,-35.64453125,-96.19140625,-202.63671875,-52.734375
1755830985.5412054,-6.8359375,472.16796875,316.89453125,-4.8828125
1755830985.5423758,-33.69140625,461.42578125,335.44921875,-33.69140625
1755830985.5435462,-57.6171875,-236.81640625,-268.06640625,-76.171875
1755830985.5447166,-41.015625,-334.47265625,-423.33984375,-68.359375
1755830985.545887,-10.7421875,79.1015625,-15.13671875,-13.671875
1755830985.5470576,-16.11328125,65.4296875,52.734375,-10.7421875
1755830985.548228,-41.9921875,-304.6875,-314.453125,-55.6640625
1755830985.5493984,-45.41015625,-211.9140625,-311.5234375,-62.01171875
1755830985.550569,-32.2265625,414.55078125,206.0546875,-1.46484375
1755830985.5517397,-18.06640625,482.421875,346.19140625,11.71875
1755830985.55291,-23.92578125,-176.7578125,-224.12109375,-12.20703125
1755830985.5566742,-66.89453125,-364.74609375,-503.41796875,-26.85546875
1755830985.5604384,-51.7578125,177.734375,-55.17578125,-11.71875
1755830985.5642028,-20.99609375,217.28515625,88.37890625,32.71484375
1755830985.5679672,-49.8046875,-617.67578125,-585.44921875,29.78515625
1755830985.571731,-76.66015625,-575.1953125,-689.94140625,-28.80859375
1755830985.5754955,-51.26953125,-146.97265625,-275.87890625,-0.9765625
1755830985.57926,-5.37109375,-228.02734375,-197.75390625,100.5859375
1755830985.5830245,-24.90234375,-718.75,-600.09765625,85.44921875
1755830985.586789,-83.0078125,-462.890625,-558.10546875,38.57421875
1755830985.590553,-68.359375,124.51171875,-143.06640625,79.1015625
1755830985.5943172,-12.6953125,156.25,7.32421875,126.46484375
1755830985.5980816,-16.6015625,316.40625,203.61328125,121.58203125
1755830985.6030505,-48.828125,272.94921875,56.640625,102.5390625
1755830985.6080196,-42.48046875,-28.3203125,-258.30078125,120.60546875
1755830985.6129885,-14.6484375,-8.7890625,-167.48046875,167.48046875
1755830985.6179576,9.765625,408.203125,254.8828125,173.33984375
1755830985.6229265,-15.13671875,354.98046875,170.41015625,140.625
1755830985.6278954,-23.4375,-282.2265625,-394.04296875,132.32421875
1755830985.6328645,29.78515625,-805.6640625,-793.45703125,181.640625
1755830985.6378334,29.296875,-329.58984375,-389.6484375,186.03515625
1755830985.6428025,-10.7421875,357.91015625,188.4765625,136.23046875
1755830985.6477714,-24.90234375,-243.65234375,-305.6640625,111.81640625
1755830985.6527405,-1.953125,-522.94921875,-555.17578125,123.046875
1755830985.6577094,6.8359375,233.3984375,75.68359375,162.59765625
1755830985.661491,-8.30078125,555.17578125,340.33203125,152.83203125
1755830985.6652722,-9.765625,-65.91796875,-182.6171875,109.86328125
1755830985.6690536,-8.7890625,-341.30859375,-430.6640625,123.046875
1755830985.6728349,12.20703125,215.33203125,17.578125,173.33984375
1755830985.6766164,7.8125,400.390625,201.66015625,172.8515625
1755830985.6803975,-31.73828125,-286.1328125,-337.40234375,113.28125
1755830985.684179,-42.96875,-672.36328125,-684.08203125,106.4453125
1755830985.6879606,-12.20703125,-83.984375,-249.51171875,152.34375
1755830985.691742,18.5546875,423.828125,196.2890625,163.0859375
1755830985.6955233,13.671875,-220.21484375,-305.6640625,142.578125
1755830985.6993048,-18.06640625,-897.94921875,-931.640625,99.609375
1755830985.703086,-8.30078125,-222.65625,-381.8359375,123.046875
1755830985.7068424,32.2265625,104.4921875,27.34375,175.29296875
1755830985.7105987,1.46484375,-373.53515625,-333.49609375,126.46484375
1755830985.714355,-24.4140625,-561.03515625,-650.390625,79.58984375
1755830985.7181113,16.11328125,-161.1328125,-407.2265625,117.67578125
1755830985.7218676,58.10546875,222.65625,38.57421875,160.15625
1755830985.7256236,6.8359375,-107.91015625,-116.2109375,112.3046875
1755830985.72938,-37.109375,-499.0234375,-505.859375,37.59765625
1755830985.7331362,-35.64453125,-182.6171875,-377.44140625,30.76171875
1755830985.7368925,-32.71484375,137.20703125,-63.4765625,82.03125
1755830985.7406487,-21.97265625,-401.85546875,-361.328125,83.984375
1755830985.744405,-54.19921875,-530.76171875,-555.6640625,10.7421875
1755830985.7481613,-55.6640625,-118.1640625,-392.578125,4.39453125
1755830985.7519014,-23.4375,-233.88671875,-400.87890625,63.4765625
1755830985.7556417,-16.6015625,10.25390625,-64.453125,62.98828125
