timestamps,eeg_1,eeg_2,eeg_3,eeg_4
1755823268.5893471,-83.49609375,-25.390625,3.90625,-78.61328125
1755823268.5931003,-86.9140625,-30.2734375,15.625,-79.58984375
1755823268.5968535,-42.96875,-20.01953125,16.6015625,-59.5703125
1755823268.600607,-49.31640625,-24.4140625,16.6015625,-39.55078125
1755823268.6043603,-57.12890625,-21.97265625,2.44140625,-50.29296875
1755823268.6081135,-73.2421875,-29.78515625,3.41796875,-78.61328125
1755823268.6118667,-49.8046875,-41.9921875,9.765625,-61.03515625
1755823268.61562,-21.97265625,-32.2265625,13.671875,-49.31640625
1755823268.619373,-36.62109375,-31.73828125,-2.9296875,-59.08203125
1755823268.6231265,-56.640625,-39.55078125,-20.99609375,-55.6640625
1755823268.62688,-21.97265625,-42.96875,-9.27734375,-50.78125
1755823268.630633,-21.484375,-37.59765625,11.71875,-49.31640625
1755823268.6344404,-63.96484375,-23.92578125,16.11328125,-51.7578125
1755823268.6382475,-59.08203125,-10.7421875,20.99609375,-39.55078125
1755823268.642055,-59.08203125,-12.6953125,25.390625,-38.0859375
1755823268.645862,-40.0390625,-13.671875,-1.46484375,-44.921875
1755823268.6496694,-39.55078125,-2.9296875,-11.71875,-43.45703125
1755823268.6534767,-43.9453125,-14.16015625,13.671875,-44.921875
1755823268.657284,-28.80859375,-23.4375,37.59765625,-41.50390625
1755823268.661091,-36.1328125,-26.3671875,16.11328125,-41.015625
1755823268.6648984,-25.390625,-40.0390625,-4.39453125,-37.59765625
1755823268.6687057,-46.875,-40.52734375,9.27734375,-40.0390625
1755823268.672513,-75.1953125,-19.53125,6.8359375,-69.3359375
1755823268.6763203,-53.7109375,-7.8125,9.765625,-70.3125
1755823268.6800516,-23.92578125,-21.484375,19.53125,-47.36328125
1755823268.6837828,-54.6875,-23.92578125,15.625,-53.7109375
1755823268.6875138,-89.35546875,-14.6484375,8.30078125,-64.94140625
1755823268.691245,-69.3359375,-23.92578125,7.32421875,-49.8046875
1755823268.6949763,-34.66796875,-25.87890625,6.34765625,-17.578125
1755823268.6987076,-40.52734375,-12.6953125,5.859375,-33.69140625
1755823268.7024388,-78.61328125,-14.16015625,6.34765625,-78.125
1755823268.70617,-75.1953125,-25.390625,15.625,-79.1015625
1755823268.709901,-29.78515625,-39.0625,20.99609375,-47.8515625
1755823268.7136323,-63.96484375,-37.59765625,1.46484375,-40.52734375
1755823268.7173636,-91.796875,-34.66796875,2.9296875,-64.94140625
1755823268.7210948,-79.58984375,-41.9921875,12.6953125,-62.5
1755823268.724866,-70.80078125,-13.18359375,14.16015625,-45.8984375
1755823268.728637,-52.24609375,-8.7890625,17.578125,-46.875
1755823268.732408,-59.08203125,-26.85546875,11.23046875,-71.2890625
1755823268.736179,-85.9375,-24.4140625,-13.671875,-83.984375
1755823268.7399502,-59.5703125,-19.04296875,-17.578125,-55.6640625
1755823268.7437215,-41.50390625,-23.92578125,26.3671875,-37.109375
1755823268.7474926,-62.5,-23.92578125,45.41015625,-47.36328125
1755823268.7512636,-67.87109375,-24.90234375,46.38671875,-74.21875
1755823268.7550347,-80.56640625,-35.64453125,45.41015625,-54.6875
1755823268.7588058,-64.453125,-16.6015625,25.87890625,-32.71484375
1755823268.7625768,-62.98828125,-5.37109375,17.578125,-59.08203125
1755823268.766348,-76.66015625,-20.5078125,31.25,-76.66015625
1755823268.770091,-77.1484375,-24.4140625,18.5546875,-70.3125
1755823268.773834,-54.19921875,-22.4609375,-7.8125,-53.22265625
1755823268.777577,-59.08203125,-33.203125,0.9765625,-51.7578125
1755823268.78132,-87.890625,-26.3671875,11.71875,-62.01171875
1755823268.7850633,-84.9609375,-27.83203125,-2.9296875,-76.66015625
1755823268.7888062,-62.5,-27.83203125,-14.16015625,-57.12890625
1755823268.7925491,-27.34375,-6.34765625,-7.8125,-30.2734375
1755823268.7962923,-28.3203125,-12.6953125,28.3203125,-29.296875
1755823268.8000357,-84.9609375,-29.78515625,53.7109375,-60.05859375
1755823268.8037784,-81.54296875,-35.64453125,35.15625,-72.75390625
1755823268.807521,-60.546875,-33.203125,17.08984375,-56.15234375
1755823268.8112645,-87.890625,-43.45703125,21.484375,-65.4296875
1755823268.8150077,-99.609375,-47.8515625,28.80859375,-85.9375
1755823268.818751,-76.66015625,-41.9921875,30.2734375,-72.265625
1755823268.8224945,-50.78125,-46.875,29.296875,-34.66796875
1755823268.8262377,-58.10546875,-45.41015625,19.04296875,-39.0625
1755823268.8299809,-98.6328125,-48.33984375,16.11328125,-73.73046875
1755823268.8337245,-95.703125,-53.7109375,17.08984375,-81.0546875
1755823268.8374677,-62.5,-36.1328125,9.27734375,-50.29296875
1755823268.8412108,-48.828125,-40.0390625,8.30078125,-35.64453125
1755823268.844954,-72.265625,-54.6875,18.5546875,-61.03515625
1755823268.8486974,-77.1484375,-46.38671875,0.9765625,-73.2421875
1755823268.8524408,-63.96484375,-48.33984375,-20.01953125,-52.734375
1755823268.856184,-60.546875,-43.45703125,-8.30078125,-44.43359375
1755823268.8600464,-65.4296875,-28.3203125,4.39453125,-57.6171875
1755823268.8639088,-91.796875,-46.875,20.99609375,-70.3125
1755823268.8677711,-75.68359375,-51.7578125,35.15625,-54.19921875
1755823268.8716333,-65.91796875,-31.73828125,32.2265625,-27.34375
1755823268.8754957,-82.51953125,-33.203125,14.6484375,-48.33984375
1755823268.879358,-86.9140625,-36.1328125,0.48828125,-87.40234375
1755823268.8832204,-80.56640625,-37.59765625,8.7890625,-54.19921875
1755823268.8870828,-49.8046875,-37.59765625,24.4140625,-23.92578125
1755823268.890945,-62.5,-30.2734375,33.69140625,-53.22265625
1755823268.894807,-108.3984375,-34.66796875,11.23046875,-79.58984375
1755823268.8986695,-92.28515625,-42.96875,3.90625,-69.82421875
1755823268.902532,-65.91796875,-44.43359375,18.06640625,-60.546875
1755823268.9073546,-83.49609375,-44.43359375,14.16015625,-54.19921875
1755823268.9121768,-96.6796875,-39.0625,23.92578125,-59.08203125
1755823268.916999,-89.35546875,-28.3203125,23.92578125,-76.66015625
1755823268.9218218,-69.3359375,-22.4609375,16.6015625,-62.5
1755823268.926644,-43.45703125,-30.76171875,17.08984375,-42.48046875
1755823268.9314666,-62.01171875,-27.83203125,3.90625,-50.29296875
1755823268.936289,-93.75,-17.578125,-0.9765625,-63.4765625
1755823268.941111,-71.77734375,-29.296875,4.8828125,-68.84765625
1755823268.9459338,-50.78125,-36.62109375,10.25390625,-53.7109375
1755823268.9507563,-71.77734375,-31.25,10.25390625,-51.26953125
1755823268.9555786,-78.61328125,-33.203125,-0.9765625,-71.2890625
1755823268.960401,-73.73046875,-37.59765625,-7.8125,-71.2890625
1755823268.9641232,-79.58984375,-41.50390625,6.8359375,-55.17578125
1755823268.9678452,-58.10546875,-41.50390625,19.04296875,-37.59765625
1755823268.9715672,-73.73046875,-26.3671875,14.6484375,-71.2890625
1755823268.975289,-99.12109375,-19.53125,10.7421875,-94.7265625
1755823268.9790115,-64.94140625,-35.15625,12.20703125,-50.29296875
1755823268.9827335,-39.0625,-42.96875,11.23046875,-24.90234375
1755823268.9864554,-57.6171875,-16.11328125,4.8828125,-42.96875
1755823268.9901776,-85.44921875,-12.6953125,-8.30078125,-60.05859375
1755823268.9938998,-85.9375,-22.4609375,-1.46484375,-60.05859375
1755823268.9976218,-28.80859375,-21.484375,8.30078125,-28.80859375
1755823269.0013435,-35.15625,-25.87890625,0.48828125,-36.62109375
1755823269.005066,-93.75,-30.76171875,1.953125,-76.66015625
1755823269.008891,-93.26171875,-27.83203125,8.7890625,-71.77734375
1755823269.0127163,-50.29296875,-29.78515625,11.71875,-47.36328125
1755823269.0165415,-46.38671875,-38.57421875,-0.48828125,-49.8046875
1755823269.020367,-80.078125,-37.109375,-21.484375,-80.56640625
1755823269.024192,-89.84375,-30.2734375,-12.20703125,-72.265625
1755823269.028017,-68.84765625,-22.4609375,-2.44140625,-35.64453125
1755823269.0318422,-38.0859375,-25.87890625,-10.25390625,-41.015625
1755823269.0356674,-66.89453125,-38.57421875,-8.30078125,-70.80078125
1755823269.0394926,-93.75,-37.109375,-2.9296875,-91.30859375
1755823269.0433178,-61.5234375,-42.96875,-17.08984375,-61.03515625
1755823269.047143,-63.96484375,-35.15625,-25.87890625,-47.36328125
1755823269.0509682,-80.56640625,-43.9453125,7.32421875,-53.7109375
1755823269.054736,-74.21875,-56.640625,19.04296875,-76.171875
1755823269.058504,-71.2890625,-24.90234375,12.20703125,-79.58984375
1755823269.062272,-65.91796875,-4.39453125,12.6953125,-47.36328125
1755823269.0660398,-61.5234375,10.7421875,3.41796875,-54.19921875
1755823269.0698078,-73.73046875,0.9765625,1.46484375,-81.54296875
1755823269.0735755,-72.265625,-31.25,9.27734375,-67.3828125
1755823269.0773437,-44.43359375,-42.96875,3.41796875,-41.9921875
1755823269.0811117,-62.98828125,-20.99609375,0.9765625,-62.01171875
1755823269.0848794,-90.8203125,-7.32421875,5.37109375,-80.56640625
1755823269.0886474,-90.8203125,-22.4609375,4.39453125,-75.68359375
1755823269.092415,-79.58984375,-32.2265625,3.90625,-61.5234375
1755823269.0961833,-44.43359375,-36.62109375,2.9296875,-45.8984375
1755823269.09994,-55.17578125,-50.29296875,-6.8359375,-59.5703125
1755823269.1036968,-89.35546875,-43.45703125,-24.90234375,-74.70703125
1755823269.1074538,-52.734375,-17.578125,-22.4609375,-66.89453125
1755823269.1112106,-32.71484375,-22.4609375,-8.30078125,-51.7578125
1755823269.114967,-78.125,-33.203125,-4.8828125,-62.5
1755823269.1187243,-92.7734375,-12.20703125,-12.6953125,-82.51953125
1755823269.122481,-73.73046875,-14.6484375,-17.08984375,-70.80078125
1755823269.126238,-41.015625,-27.83203125,-12.6953125,-44.43359375
1755823269.1299946,-53.7109375,-35.15625,-10.7421875,-54.6875
1755823269.1337514,-92.7734375,-37.59765625,-6.34765625,-83.0078125
1755823269.1375084,-88.8671875,-49.8046875,-8.7890625,-80.56640625
1755823269.1412652,-61.03515625,-54.6875,-11.23046875,-47.8515625
1755823269.145004,-55.6640625,-31.25,-0.48828125,-34.1796875
1755823269.1487432,-70.3125,-20.01953125,-6.34765625,-66.89453125
1755823269.152482,-65.4296875,-21.97265625,-3.41796875,-64.94140625
1755823269.156221,-40.52734375,-29.296875,8.7890625,-34.1796875
1755823269.1599598,-55.17578125,-28.80859375,4.8828125,-33.203125
1755823269.163699,-76.171875,-20.01953125,6.8359375,-56.640625
1755823269.1674378,-82.51953125,-19.04296875,6.34765625,-72.265625
1755823269.171177,-58.10546875,-12.20703125,5.859375,-48.33984375
1755823269.1749156,-37.59765625,-18.5546875,0.9765625,-39.0625
1755823269.178655,-72.75390625,-38.57421875,-8.30078125,-62.98828125
1755823269.1823936,-89.84375,-38.57421875,1.953125,-66.40625
1755823269.1861324,-76.66015625,-32.2265625,6.34765625,-75.1953125
1755823269.1898518,-49.8046875,-25.390625,-0.48828125,-67.3828125
1755823269.193571,-49.8046875,-24.4140625,-3.90625,-54.6875
1755823269.197291,-65.4296875,-30.2734375,-2.9296875,-71.77734375
1755823269.20101,-72.265625,-21.484375,-0.48828125,-74.21875
1755823269.2047293,-75.1953125,-12.6953125,-3.90625,-49.8046875
1755823269.208449,-71.77734375,-22.4609375,-17.08984375,-55.6640625
1755823269.2121682,-70.80078125,-20.01953125,-7.8125,-70.80078125
1755823269.2158875,-78.61328125,-26.3671875,4.39453125,-59.5703125
1755823269.2196069,-71.2890625,-33.69140625,-10.25390625,-48.33984375
1755823269.2233262,-40.52734375,-34.66796875,-13.671875,-48.33984375
1755823269.2270458,-37.109375,-49.31640625,-14.6484375,-59.08203125
1755823269.230765,-92.28515625,-45.8984375,-10.7421875,-76.171875
1755823269.2345254,-108.88671875,-29.78515625,1.46484375,-71.77734375
1755823269.2382858,-54.19921875,-11.23046875,-4.39453125,-50.78125
1755823269.242046,-54.19921875,-3.90625,-3.90625,-55.17578125
1755823269.2458065,-87.890625,-13.671875,4.39453125,-76.171875
1755823269.2495668,-80.078125,-22.94921875,-2.9296875,-62.01171875
1755823269.2533271,-43.9453125,-30.76171875,-11.71875,-41.50390625
1755823269.2570877,-43.9453125,-34.66796875,-11.23046875,-52.24609375
1755823269.2608478,-85.44921875,-32.2265625,-12.20703125,-69.3359375
1755823269.264608,-93.26171875,-37.59765625,-8.7890625,-82.03125
1755823269.2683685,-58.59375,-36.1328125,-1.953125,-56.15234375
1755823269.2721288,-38.57421875,-40.52734375,-2.44140625,-24.90234375
1755823269.2758892,-68.84765625,-33.203125,-11.23046875,-63.4765625
1755823269.2808115,-84.47265625,-12.6953125,-15.13671875,-94.23828125
1755823269.2857342,-54.19921875,-13.18359375,-10.25390625,-70.80078125
1755823269.2906566,-62.98828125,-22.4609375,-5.37109375,-60.05859375
1755823269.295579,-65.91796875,-20.5078125,-9.765625,-67.3828125
1755823269.300501,-44.43359375,-19.04296875,-13.671875,-79.58984375
1755823269.3054235,-56.640625,-19.53125,-10.7421875,-69.82421875
1755823269.3103464,-51.26953125,-17.08984375,-13.671875,-45.8984375
1755823269.3152688,-51.7578125,-17.578125,-13.671875,-59.08203125
1755823269.3201911,-89.84375,-18.5546875,-10.25390625,-78.61328125
1755823269.3251138,-80.56640625,-24.90234375,-14.16015625,-60.546875
1755823269.3300362,-46.38671875,-29.78515625,-26.3671875,-37.59765625
1755823269.3349586,-41.9921875,-21.97265625,-17.578125,-50.29296875
1755823269.3387077,-71.2890625,-21.484375,-4.8828125,-70.80078125
1755823269.342457,-69.82421875,-33.203125,-4.39453125,-78.125
1755823269.3462062,-30.2734375,-24.90234375,6.8359375,-50.78125
1755823269.349955,-30.76171875,-12.6953125,1.953125,-38.0859375
1755823269.3537047,-63.96484375,-8.7890625,-5.37109375,-62.98828125
1755823269.3574538,-79.1015625,-14.16015625,2.9296875,-68.84765625
1755823269.361203,-52.24609375,-21.484375,4.39453125,-44.921875
1755823269.3649523,-20.5078125,-13.671875,-6.8359375,-37.59765625
1755823269.3687017,-57.12890625,-7.32421875,-9.27734375,-44.921875
1755823269.3724506,-93.75,-10.7421875,-5.859375,-61.5234375
1755823269.3762,-62.98828125,-23.4375,-17.08984375,-61.5234375
1755823269.379949,-38.0859375,-28.80859375,-7.8125,-27.34375
1755823269.3837965,-41.9921875,-27.34375,13.671875,-28.80859375
1755823269.3876438,-72.265625,-21.97265625,9.27734375,-64.94140625
1755823269.391491,-95.703125,-33.69140625,2.9296875,-74.70703125
1755823269.3953383,-44.43359375,-31.25,-2.9296875,-36.1328125
1755823269.3991857,-42.96875,-18.06640625,0.48828125,-28.80859375
1755823269.4030328,-103.515625,-32.71484375,-6.8359375,-66.89453125
1755823269.40688,-88.8671875,-37.109375,-20.5078125,-84.9609375
1755823269.4107275,-61.03515625,-21.484375,-17.08984375,-67.87109375
1755823269.4145749,-43.9453125,-15.625,-7.8125,-47.8515625
1755823269.4184222,-63.4765625,-22.94921875,-2.44140625,-59.08203125
1755823269.422269,-88.37890625,-31.73828125,-10.25390625,-75.1953125
1755823269.4261167,-63.96484375,-34.1796875,-8.7890625,-52.24609375
1755823269.4298818,-28.80859375,-43.9453125,0.0,-33.69140625
1755823269.433647,-71.77734375,-42.96875,-6.8359375,-61.5234375
1755823269.4374118,-97.65625,-21.97265625,-30.76171875,-85.9375
1755823269.441177,-59.5703125,-14.6484375,-28.80859375,-62.01171875
1755823269.4449418,-35.64453125,-21.484375,-21.484375,-44.43359375
1755823269.4487069,-59.08203125,-36.1328125,-19.04296875,-60.546875
1755823269.452472,-82.51953125,-48.828125,-1.953125,-82.51953125
1755823269.4562368,-57.12890625,-47.36328125,8.30078125,-69.3359375
1755823269.460002,-58.10546875,-15.13671875,-0.9765625,-42.96875
1755823269.463767,-75.68359375,-6.34765625,-15.625,-46.875
1755823269.467532,-90.8203125,-22.94921875,-3.90625,-81.0546875
1755823269.471297,-102.5390625,-15.13671875,11.23046875,-92.28515625
1755823269.4750514,-61.5234375,-18.5546875,5.37109375,-61.03515625
1755823269.4788058,-62.01171875,-29.78515625,0.48828125,-59.08203125
1755823269.4825602,-96.6796875,-34.1796875,-1.953125,-76.66015625
1755823269.4863143,-95.703125,-31.73828125,-10.25390625,-75.68359375
1755823269.490069,-65.91796875,-21.97265625,-14.6484375,-62.98828125
1755823269.493823,-39.55078125,-28.3203125,-5.859375,-39.55078125
1755823269.4975774,-59.5703125,-30.76171875,-10.25390625,-46.875
1755823269.5013318,-96.19140625,-19.04296875,-19.04296875,-61.5234375
1755823269.5050862,-76.171875,-39.0625,-14.16015625,-51.26953125
1755823269.5088406,-36.62109375,-44.921875,-9.765625,-41.015625
1755823269.512595,-50.78125,-11.23046875,-6.8359375,-50.29296875
1755823269.5163493,-83.0078125,-0.9765625,4.39453125,-69.3359375
1755823269.5200877,-65.91796875,-9.765625,12.20703125,-64.453125
1755823269.5238256,-26.3671875,-14.6484375,5.859375,-42.48046875
1755823269.527564,-42.48046875,-18.06640625,-9.27734375,-35.15625
1755823269.5313022,-102.05078125,-40.0390625,-25.390625,-56.15234375
1755823269.5350404,-102.05078125,-39.0625,-20.5078125,-70.3125
1755823269.5387788,-41.9921875,-27.83203125,-9.765625,-40.0390625
1755823269.542517,-30.2734375,-22.94921875,-6.8359375,-27.34375
1755823269.546255,-62.5,-23.92578125,5.37109375,-46.38671875
1755823269.5499933,-84.47265625,-27.83203125,2.44140625,-71.77734375
1755823269.5537314,-61.03515625,-22.4609375,-5.37109375,-66.40625
1755823269.5574698,-41.9921875,-22.4609375,-16.11328125,-52.734375
1755823269.561208,-73.2421875,-34.66796875,-17.08984375,-68.359375
1755823269.564982,-106.93359375,-59.5703125,-17.08984375,-84.47265625
1755823269.5687556,-81.54296875,-54.19921875,-31.73828125,-79.1015625
1755823269.5725296,-60.546875,-25.87890625,-34.1796875,-54.6875
1755823269.5763035,-74.70703125,-13.18359375,-18.5546875,-50.78125
1755823269.5800772,-82.03125,-21.484375,-1.953125,-67.3828125
1755823269.583851,-69.82421875,-28.80859375,0.9765625,-69.3359375
1755823269.587625,-46.875,-28.3203125,3.41796875,-45.8984375
1755823269.5913987,-44.43359375,-24.90234375,2.9296875,-36.62109375
1755823269.5951726,-83.49609375,-38.57421875,-23.92578125,-65.4296875
1755823269.5989466,-95.21484375,-45.8984375,-35.15625,-77.63671875
1755823269.6027205,-60.05859375,-40.0390625,-15.625,-55.17578125
1755823269.6064942,-54.19921875,-28.80859375,-6.34765625,-48.33984375
1755823269.6102283,-64.94140625,-19.04296875,-7.8125,-78.125
1755823269.6139622,-96.6796875,-19.53125,-11.71875,-91.30859375
1755823269.6176963,-118.1640625,-32.2265625,-18.5546875,-63.4765625
1755823269.6214302,-43.45703125,-42.96875,-12.6953125,-32.71484375
1755823269.6251645,-41.9921875,-41.50390625,-8.30078125,-47.8515625
1755823269.628898,-91.30859375,-40.52734375,-14.6484375,-85.9375
1755823269.6326325,-84.47265625,-30.76171875,-16.11328125,-74.21875
1755823269.6363664,-46.38671875,-29.296875,-16.6015625,-42.48046875
1755823269.6401002,-67.3828125,-41.9921875,-25.87890625,-62.98828125
1755823269.6438344,-117.67578125,-44.921875,-21.484375,-93.75
1755823269.6475682,-95.21484375,-25.87890625,-22.94921875,-95.703125
1755823269.6513023,-74.21875,-21.484375,-26.3671875,-71.2890625
1755823269.6561742,-49.31640625,-23.92578125,-23.92578125,-54.19921875
1755823269.661046,-70.80078125,-36.1328125,-20.01953125,-64.453125
1755823269.665918,-94.7265625,-49.8046875,-8.30078125,-67.87109375
1755823269.67079,-63.96484375,-33.203125,-13.18359375,-45.8984375
1755823269.6756618,-24.90234375,-26.3671875,-16.11328125,-26.85546875
1755823269.680534,-71.2890625,-26.85546875,-2.9296875,-54.6875
1755823269.6854055,-133.7890625,-21.97265625,6.8359375,-80.56640625
1755823269.6902776,-100.09765625,-26.85546875,14.16015625,-62.5
1755823269.6951494,-61.5234375,-47.36328125,9.27734375,-43.45703125
1755823269.7000213,-68.84765625,-54.6875,-3.41796875,-47.36328125
1755823269.7048934,-85.44921875,-36.62109375,-11.71875,-68.359375
1755823269.7097652,-88.37890625,-34.66796875,-5.859375,-65.4296875
1755823269.7136433,-84.47265625,-47.36328125,4.39453125,-51.26953125
1755823269.7175212,-82.51953125,-54.19921875,8.30078125,-61.03515625
1755823269.7213993,-117.67578125,-59.5703125,5.37109375,-74.70703125
1755823269.7252774,-113.76953125,-51.7578125,-8.7890625,-88.37890625
1755823269.7291553,-73.2421875,-50.78125,-18.5546875,-62.01171875
1755823269.7330334,-51.26953125,-69.3359375,-10.25390625,-26.85546875
1755823269.7369115,-84.9609375,-69.3359375,-4.8828125,-58.59375
1755823269.7407894,-96.19140625,-33.203125,-11.23046875,-74.70703125
1755823269.7446675,-67.87109375,-5.37109375,-11.71875,-53.22265625
1755823269.7485456,-56.15234375,-37.109375,-10.25390625,-33.203125
1755823269.7524235,-74.70703125,-50.29296875,-7.32421875,-43.9453125
1755823269.7563016,-84.47265625,-24.90234375,-4.8828125,-74.70703125
1755823269.7600522,-62.01171875,-19.04296875,-1.46484375,-63.96484375
1755823269.7638028,-55.17578125,-20.01953125,3.90625,-55.17578125
1755823269.767553,-79.1015625,-19.53125,-1.46484375,-65.91796875
1755823269.771304,-93.26171875,-29.78515625,-14.16015625,-84.47265625
1755823269.7750545,-87.40234375,-42.96875,-7.8125,-79.1015625
1755823269.7788048,-70.3125,-42.96875,1.953125,-37.59765625
1755823269.782555,-59.08203125,-33.69140625,-4.8828125,-36.62109375
1755823269.786306,-96.19140625,-32.71484375,-16.6015625,-76.171875
1755823269.7900565,-92.28515625,-30.2734375,-17.08984375,-78.125
1755823269.793807,-65.91796875,-23.92578125,-16.11328125,-47.8515625
1755823269.7975576,-67.87109375,-36.62109375,-20.5078125,-38.0859375
1755823269.8013082,-90.8203125,-40.52734375,-9.765625,-60.546875
1755823269.8062496,-85.9375,-29.78515625,-7.32421875,-75.68359375
1755823269.811191,-62.01171875,-29.78515625,-14.6484375,-63.96484375
1755823269.8161323,-57.6171875,-30.2734375,-8.30078125,-47.8515625
1755823269.821074,-69.82421875,-43.45703125,-12.6953125,-66.40625
1755823269.8260157,-85.44921875,-45.8984375,-26.3671875,-90.8203125
1755823269.830957,-111.81640625,-40.0390625,-33.69140625,-97.16796875
1755823269.8358984,-104.00390625,-42.48046875,-22.4609375,-85.9375
1755823269.84084,-97.65625,-42.48046875,-20.01953125,-82.51953125
1755823269.845781,-129.8828125,-41.015625,-19.04296875,-116.2109375
1755823269.8507228,-117.67578125,-34.66796875,-14.16015625,-130.859375
1755823269.8556645,-88.37890625,-22.94921875,-10.7421875,-98.6328125
1755823269.8606057,-90.33203125,-19.04296875,16.6015625,-93.75
1755823269.8632767,-153.80859375,-25.390625,34.1796875,-146.97265625
1755823269.8659475,-190.91796875,-30.2734375,30.2734375,-168.9453125
1755823269.8686185,-156.73828125,-28.80859375,4.8828125,-141.6015625
1755823269.8712895,-153.80859375,-36.1328125,15.625,-132.32421875
1755823269.8739605,-198.73046875,-50.78125,33.203125,-164.0625
1755823269.8766315,-232.91015625,-55.17578125,18.5546875,-198.2421875
1755823269.8793025,-208.984375,-53.7109375,41.50390625,-176.26953125
1755823269.8819735,-165.52734375,-43.45703125,41.015625,-126.46484375
1755823269.8846445,-172.36328125,-37.109375,-17.08984375,-128.90625
1755823269.8873153,-202.63671875,-61.03515625,-5.859375,-150.87890625
1755823269.8899865,-182.12890625,-92.7734375,88.8671875,-136.71875
1755823269.8926573,-150.87890625,-103.515625,80.078125,-94.23828125
1755823269.8962913,-125.0,-89.35546875,30.2734375,-58.10546875
1755823269.8999257,-128.41796875,-62.5,49.8046875,-77.1484375
1755823269.9035597,-100.09765625,-49.8046875,72.75390625,-72.265625
1755823269.9071937,-61.5234375,-71.77734375,65.91796875,-21.97265625
1755823269.9108276,-47.8515625,-85.44921875,58.59375,2.9296875
1755823269.914462,-43.45703125,-79.58984375,41.50390625,7.32421875
1755823269.918096,-49.8046875,-83.49609375,25.390625,21.484375
1755823269.92173,-11.23046875,-102.5390625,33.203125,63.4765625
1755823269.925364,33.69140625,-108.3984375,33.69140625,103.515625
1755823269.9289982,55.6640625,-92.7734375,33.203125,104.98046875
1755823269.9326324,45.8984375,-85.9375,47.8515625,91.796875
1755823269.9362664,41.9921875,-79.1015625,45.8984375,127.44140625
1755823269.9412534,89.35546875,-86.9140625,34.66796875,171.875
1755823269.9462404,116.2109375,-98.6328125,43.45703125,162.109375
1755823269.9512274,74.70703125,-107.91015625,38.57421875,143.06640625
1755823269.9562144,82.51953125,-112.79296875,4.8828125,149.4140625
1755823269.9612014,123.53515625,-117.1875,-1.953125,166.9921875
1755823269.9661884,114.74609375,-111.328125,8.7890625,176.7578125
1755823269.9711754,98.6328125,-79.1015625,18.5546875,160.15625
1755823269.9761624,100.09765625,-62.5,14.6484375,156.25
1755823269.9811494,150.390625,-59.5703125,17.578125,185.546875
1755823269.9861364,159.1796875,-61.5234375,11.23046875,187.01171875
1755823269.9911234,111.328125,-77.63671875,-12.20703125,158.69140625
1755823269.9961104,80.56640625,-79.1015625,3.90625,155.2734375
1755823269.998589,99.12109375,-64.453125,12.20703125,166.9921875
1755823270.0010674,122.55859375,-62.01171875,19.53125,169.43359375
1755823270.0035458,97.16796875,-73.2421875,38.57421875,140.625
1755823270.0060244,75.1953125,-70.3125,28.80859375,121.58203125
1755823270.008503,93.26171875,-60.546875,8.7890625,129.39453125
1755823270.010981,127.44140625,-55.6640625,12.6953125,142.08984375
1755823270.0134597,114.74609375,-53.7109375,9.27734375,127.44140625
1755823270.0159383,61.03515625,-58.10546875,-13.671875,89.84375
1755823270.018417,50.29296875,-55.17578125,3.90625,89.35546875
1755823270.0208952,90.8203125,-36.62109375,29.78515625,113.28125
1755823270.0233736,107.421875,-37.59765625,30.76171875,125.0
1755823270.0258522,45.8984375,-49.31640625,28.3203125,96.19140625
1755823270.029736,31.25,-33.203125,2.44140625,61.03515625
1755823270.03362,67.3828125,-28.3203125,-1.46484375,93.26171875
1755823270.037504,70.3125,-51.26953125,-2.44140625,105.95703125
1755823270.0413878,69.82421875,-42.48046875,-3.41796875,61.03515625
1755823270.0452716,48.828125,-26.3671875,18.06640625,40.52734375
1755823270.0491557,53.7109375,-22.4609375,16.6015625,65.4296875
1755823270.0530396,69.3359375,-29.296875,7.32421875,102.05078125
1755823270.0569234,40.0390625,-34.1796875,8.30078125,63.96484375
1755823270.0608072,24.90234375,-23.92578125,23.92578125,19.04296875
1755823270.064691,11.71875,-10.25390625,18.06640625,35.64453125
1755823270.0685751,20.99609375,-3.90625,29.296875,53.7109375
1755823270.072459,30.2734375,-1.46484375,56.640625,38.57421875
1755823270.077423,0.0,0.48828125,54.19921875,-0.48828125
1755823270.0823874,-17.08984375,-12.6953125,45.8984375,-10.25390625
1755823270.0873518,-4.39453125,-15.625,39.55078125,14.6484375
1755823270.0923162,10.25390625,-11.23046875,36.62109375,22.4609375
1755823270.0972805,-27.34375,-16.11328125,36.62109375,-22.4609375
1755823270.1022449,-20.99609375,-15.625,44.43359375,-30.76171875
1755823270.107209,13.18359375,-13.18359375,45.8984375,11.71875
1755823270.1121733,-13.671875,-6.34765625,41.015625,17.578125
1755823270.1171377,-50.78125,-8.7890625,40.0390625,-12.6953125
1755823270.1221018,-58.59375,-26.3671875,38.0859375,-32.71484375
1755823270.127066,-31.25,-17.578125,39.55078125,-26.85546875
1755823270.1320305,-5.37109375,-14.16015625,35.64453125,-0.48828125
1755823270.1357028,-12.20703125,-29.296875,26.85546875,-12.20703125
1755823270.1393752,-36.62109375,-18.06640625,30.76171875,-48.828125
1755823270.1430476,-34.66796875,3.41796875,49.8046875,-43.9453125
1755823270.14672,-25.87890625,-2.44140625,57.6171875,-20.99609375
1755823270.1503923,-43.9453125,-23.4375,55.17578125,-14.16015625
1755823270.154065,-50.78125,-20.99609375,60.05859375,-41.015625
1755823270.157737,-36.62109375,-9.27734375,48.828125,-37.59765625
1755823270.1614094,-25.390625,0.0,33.203125,-18.5546875
1755823270.1650815,-28.80859375,1.46484375,32.71484375,-33.203125
1755823270.168754,-69.82421875,-6.8359375,34.1796875,-50.29296875
1755823270.1724265,-102.05078125,-11.23046875,45.8984375,-69.82421875
1755823270.1760988,-75.1953125,-8.30078125,67.3828125,-64.453125
1755823270.1810985,-41.015625,-24.4140625,60.05859375,-41.9921875
1755823270.186098,-57.12890625,-63.4765625,40.0390625,-53.22265625
1755823270.1910975,-93.26171875,-49.31640625,7.32421875,-95.21484375
1755823270.196097,-78.61328125,-13.18359375,26.3671875,-74.21875
1755823270.2010963,-72.265625,6.34765625,62.98828125,-36.62109375
1755823270.2060962,-79.1015625,-10.25390625,48.828125,-57.12890625
1755823270.2110956,-104.98046875,-29.78515625,41.50390625,-108.88671875
1755823270.2160952,-117.1875,-8.7890625,54.6875,-106.4453125
1755823270.2210946,-99.609375,-9.27734375,57.12890625,-68.359375
1755823270.2260942,-85.9375,-15.13671875,43.9453125,-70.3125
1755823270.2310936,-96.19140625,-11.23046875,50.29296875,-92.28515625
1755823270.2360933,-88.37890625,-19.04296875,62.5,-102.5390625
1755823270.2386217,-59.5703125,-33.69140625,56.640625,-74.70703125
1755823270.2411497,-62.5,-37.109375,47.36328125,-62.5
1755823270.243678,-64.94140625,-28.80859375,43.45703125,-80.078125
1755823270.2462063,-76.171875,-30.2734375,65.4296875,-82.03125
1755823270.2487345,-54.6875,-21.97265625,87.890625,-74.70703125
1755823270.251263,-71.77734375,-16.6015625,94.23828125,-78.61328125
1755823270.2537909,-93.75,-15.13671875,85.44921875,-79.1015625
1755823270.256319,-77.63671875,-14.16015625,76.66015625,-73.73046875
1755823270.2588472,-63.4765625,-26.3671875,80.078125,-64.94140625
1755823270.2613757,-46.38671875,-31.25,75.1953125,-41.015625
1755823270.263904,-42.96875,-34.66796875,73.73046875,-51.26953125
1755823270.266432,-66.40625,-37.109375,75.68359375,-86.9140625
1755823270.2702825,-64.453125,-41.50390625,81.54296875,-73.73046875
1755823270.2741332,-47.36328125,-53.22265625,80.078125,-50.29296875
1755823270.2779837,-67.3828125,-43.45703125,84.47265625,-50.78125
1755823270.281834,-93.26171875,-20.01953125,99.12109375,-90.8203125
1755823270.2856846,-83.49609375,-27.83203125,112.3046875,-102.5390625
1755823270.289535,-61.5234375,-43.9453125,126.953125,-64.453125
1755823270.2933855,-62.5,-32.2265625,123.046875,-53.22265625
1755823270.2972362,-81.54296875,-28.3203125,128.41796875,-71.2890625
1755823270.301087,-100.09765625,-32.71484375,150.87890625,-102.05078125
1755823270.3049374,-77.1484375,-24.90234375,157.71484375,-89.84375
1755823270.3087878,-50.78125,-28.80859375,159.1796875,-47.36328125
1755823270.3126383,-67.87109375,-28.80859375,173.828125,-56.15234375
1755823270.316389,-119.140625,-27.83203125,169.43359375,-97.65625
1755823270.32014,-118.65234375,-35.15625,159.1796875,-86.42578125
1755823270.3238907,-47.36328125,-11.71875,192.3828125,-40.0390625
1755823270.3276415,-36.62109375,-8.7890625,201.66015625,-44.43359375
1755823270.3313923,-78.125,-35.64453125,169.43359375,-92.28515625
1755823270.335143,-95.21484375,-30.76171875,168.9453125,-99.609375
1755823270.338894,-60.05859375,-14.16015625,167.48046875,-67.87109375
1755823270.342645,-35.15625,-12.6953125,156.73828125,-50.78125
1755823270.346396,-89.84375,-25.87890625,150.390625,-76.66015625
1755823270.3501468,-109.86328125,-36.62109375,148.92578125,-101.07421875
1755823270.3538976,-66.40625,-26.3671875,141.6015625,-69.3359375
1755823270.3576484,-72.265625,-29.78515625,126.953125,-45.8984375
1755823270.3612847,-109.375,-32.2265625,110.3515625,-79.1015625
1755823270.3649209,-101.07421875,-28.3203125,115.72265625,-102.05078125
1755823270.3685572,-71.2890625,-46.875,122.0703125,-74.21875
1755823270.372193,-52.24609375,-33.69140625,125.0,-50.78125
1755823270.3758297,-67.87109375,-15.625,119.140625,-74.70703125
1755823270.379466,-101.5625,-25.390625,117.1875,-99.12109375
1755823270.3831022,-88.37890625,-37.109375,116.2109375,-73.73046875
1755823270.3867383,-61.5234375,-38.0859375,81.54296875,-42.96875
1755823270.390375,-62.01171875,-62.98828125,72.75390625,-39.0625
1755823270.394011,-89.35546875,-70.80078125,99.12109375,-59.5703125
1755823270.3976471,-107.91015625,-25.390625,92.7734375,-89.35546875
1755823270.4012835,-65.91796875,-9.27734375,67.87109375,-69.3359375
1755823270.4062805,-49.8046875,-12.6953125,41.015625,-53.22265625
1755823270.411277,-88.8671875,-8.7890625,43.9453125,-83.984375
1755823270.416274,-104.00390625,-12.6953125,63.4765625,-95.703125
1755823270.4212708,-83.49609375,-29.78515625,60.546875,-73.73046875
1755823270.4262676,-63.96484375,-40.0390625,53.22265625,-59.5703125
1755823270.4312644,-83.0078125,-39.0625,61.5234375,-70.3125
1755823270.4362612,-96.19140625,-51.7578125,54.19921875,-78.125
1755823270.441258,-80.078125,-54.6875,24.4140625,-64.94140625
1755823270.4462547,-66.89453125,-39.55078125,17.08984375,-56.640625
1755823270.4512515,-66.40625,-27.34375,42.96875,-63.4765625
1755823270.4562483,-84.47265625,-13.671875,61.03515625,-67.87109375
1755823270.4612453,-75.1953125,1.953125,63.96484375,-60.05859375
1755823270.46495,-57.6171875,-17.08984375,47.8515625,-48.828125
1755823270.4686546,-58.10546875,-58.10546875,15.13671875,-62.5
1755823270.4723594,-62.01171875,-47.8515625,43.45703125,-78.61328125
1755823270.4760642,-90.33203125,-5.859375,54.19921875,-77.63671875
1755823270.479769,-82.51953125,14.6484375,44.43359375,-63.96484375
1755823270.4834738,-44.921875,-14.6484375,53.22265625,-62.98828125
1755823270.4871783,-80.56640625,-42.48046875,50.78125,-83.984375
1755823270.490883,-115.234375,-35.15625,44.921875,-89.35546875
1755823270.494588,-53.22265625,-31.25,39.55078125,-62.98828125
1755823270.4982924,-65.91796875,-24.4140625,34.66796875,-45.41015625
1755823270.5019972,-93.26171875,-36.1328125,31.25,-63.96484375
1755823270.505702,-92.28515625,-51.26953125,37.59765625,-89.84375
1755823270.5095026,-82.03125,-40.52734375,38.0859375,-75.68359375
1755823270.5133033,-48.33984375,-36.62109375,64.94140625,-22.94921875
1755823270.517104,-63.4765625,-26.3671875,87.40234375,-31.73828125
1755823270.5209043,-85.44921875,5.859375,80.56640625,-87.40234375
1755823270.5247052,-82.03125,7.32421875,83.49609375,-81.54296875
1755823270.5285058,-69.3359375,-15.625,70.3125,-41.50390625
1755823270.5323064,-70.3125,-34.66796875,71.2890625,-47.8515625
1755823270.536107,-84.9609375,-34.66796875,99.609375,-76.171875
1755823270.5399077,-90.33203125,-15.625,117.1875,-63.96484375
1755823270.5437083,-52.24609375,-32.2265625,113.76953125,-30.76171875
1755823270.547509,-49.31640625,-61.03515625,103.02734375,-46.38671875
1755823270.5513096,-50.78125,-25.87890625,115.72265625,-65.4296875
1755823270.5551188,-60.546875,1.953125,122.0703125,-68.84765625
1755823270.5589285,-71.2890625,-3.90625,119.140625,-66.89453125
1755823270.5627377,-62.98828125,-7.8125,99.12109375,-43.9453125
1755823270.566547,-68.84765625,-5.859375,95.21484375,-42.48046875
1755823270.570356,-70.3125,-7.8125,140.13671875,-69.3359375
1755823270.574165,-55.17578125,-6.34765625,185.05859375,-51.7578125
1755823270.5779746,-46.875,-4.39453125,216.796875,-25.87890625
1755823270.581784,-54.19921875,-12.6953125,225.5859375,-48.828125
1755823270.5855932,-67.3828125,-14.6484375,281.25,-63.4765625
1755823270.5894024,-44.921875,-15.625,354.4921875,-42.96875
1755823270.593212,-39.0625,-4.39453125,396.97265625,-27.34375
1755823270.597021,-50.78125,0.9765625,429.19921875,-29.78515625
1755823270.600697,-65.91796875,-5.859375,445.80078125,-52.24609375
1755823270.604373,-83.49609375,-18.06640625,429.19921875,-78.61328125
1755823270.608049,-57.12890625,-35.15625,421.38671875,-49.31640625
1755823270.6117249,-41.50390625,-28.80859375,465.33203125,-22.4609375
1755823270.6154008,-55.6640625,-20.5078125,501.953125,-47.36328125
1755823270.6190767,-85.44921875,-21.97265625,501.953125,-63.96484375
1755823270.622753,-80.078125,-13.18359375,494.62890625,-43.9453125
1755823270.6264286,-49.8046875,-3.90625,489.2578125,-35.64453125
1755823270.6301043,-49.31640625,-9.765625,477.05078125,-50.78125
1755823270.6337805,-80.078125,-15.13671875,470.21484375,-74.21875
1755823270.6374564,-69.82421875,-9.765625,451.66015625,-60.546875
1755823270.6411324,-43.9453125,-17.08984375,429.6875,-26.3671875
1755823270.6449394,-54.19921875,-19.04296875,431.640625,-32.71484375
1755823270.6487465,-61.5234375,-28.3203125,428.22265625,-73.2421875
1755823270.652553,-64.453125,-29.296875,410.15625,-79.1015625
1755823270.6563604,-37.109375,-19.04296875,395.01953125,-40.0390625
1755823270.6601677,-46.38671875,-12.6953125,386.71875,-28.80859375
1755823270.6639743,-91.30859375,-4.39453125,370.1171875,-55.17578125
1755823270.6677814,-83.0078125,-16.11328125,358.88671875,-70.80078125
1755823270.6715884,-41.9921875,-36.1328125,338.37890625,-44.921875
1755823270.6753955,-41.9921875,-54.19921875,294.921875,-35.15625
1755823270.6792026,-75.1953125,-35.15625,302.734375,-61.03515625
1755823270.6830094,-91.796875,-12.20703125,335.9375,-72.75390625
1755823270.6868165,-80.078125,-18.06640625,325.1953125,-55.17578125
1755823270.691784,-68.359375,-27.83203125,300.78125,-28.3203125
1755823270.6967514,-54.6875,-30.76171875,291.9921875,-40.52734375
1755823270.7017188,-74.21875,-23.4375,281.25,-76.171875
1755823270.7066865,-78.125,-7.32421875,267.578125,-75.68359375
1755823270.711654,-52.734375,-7.8125,250.48828125,-44.43359375
1755823270.7166214,-57.6171875,-18.06640625,240.72265625,-34.1796875
1755823270.7215889,-59.08203125,-15.13671875,242.1875,-61.5234375
1755823270.7265563,-54.6875,-16.11328125,228.02734375,-67.3828125
1755823270.731524,-65.4296875,-36.1328125,208.49609375,-54.6875
1755823270.7364914,-52.734375,-50.29296875,187.5,-40.0390625
1755823270.741459,-58.59375,-44.43359375,181.640625,-41.9921875
1755823270.7464263,-84.9609375,-25.390625,198.2421875,-68.84765625
1755823270.7489092,-60.546875,-16.6015625,210.44921875,-50.78125
1755823270.7513924,-38.0859375,-25.390625,210.9375,-23.92578125
1755823270.7538753,-59.5703125,-19.53125,192.87109375,-60.05859375
1755823270.756358,-68.84765625,-7.8125,173.33984375,-78.61328125
1755823270.7588413,-68.359375,-7.8125,164.55078125,-48.828125
1755823270.7613242,-61.03515625,-11.71875,158.69140625,-20.5078125
1755823270.763807,-60.05859375,-20.5078125,163.57421875,-35.15625
1755823270.7662902,-76.171875,-28.80859375,164.0625,-58.10546875
1755823270.768773,-52.734375,-16.6015625,142.578125,-49.8046875
1755823270.771256,-66.89453125,-11.71875,126.953125,-35.15625
1755823270.773739,-107.421875,-18.5546875,117.67578125,-49.31640625
1755823270.776222,-125.9765625,-25.390625,101.07421875,-94.7265625
1755823270.78106,-145.01953125,-38.57421875,86.9140625,-127.9296875
1755823270.7858982,-142.08984375,-43.45703125,87.40234375,-137.20703125
1755823270.7907362,-135.7421875,-82.51953125,69.82421875,-151.3671875
1755823270.7955742,-186.03515625,-119.62890625,74.21875,-190.4296875
1755823270.8004122,-258.30078125,-11.71875,116.2109375,-236.81640625
1755823270.8052502,-252.9296875,44.43359375,107.421875,-231.4453125
1755823270.8100884,-242.1875,21.97265625,79.1015625,-216.30859375
1755823270.8149264,-270.01953125,25.87890625,87.40234375,-258.7890625
1755823270.8197644,-312.01171875,9.765625,83.984375,-323.73046875
1755823270.8246026,-306.15234375,24.90234375,72.75390625,-325.68359375
1755823270.8294406,-293.45703125,40.52734375,80.078125,-304.6875
1755823270.8342786,-338.8671875,70.80078125,69.3359375,-339.35546875
1755823270.8381307,-377.9296875,70.80078125,90.33203125,-375.0
1755823270.8419828,-365.72265625,49.8046875,142.578125,-355.46875
1755823270.845835,-350.09765625,-4.39453125,41.50390625,-324.21875
1755823270.849687,-332.51953125,26.3671875,-39.55078125,-332.03125
1755823270.8535392,-360.3515625,57.6171875,52.24609375,-370.60546875
1755823270.8573914,-358.88671875,45.8984375,103.515625,-365.234375
1755823270.8612432,-316.40625,9.27734375,70.3125,-339.84375
1755823270.8650954,-333.49609375,22.94921875,53.7109375,-349.609375
1755823270.8689475,-346.19140625,105.46875,79.1015625,-344.23828125
1755823270.8727996,-349.12109375,62.01171875,30.2734375,-343.26171875
1755823270.8766518,-346.19140625,77.1484375,14.6484375,-352.05078125
1755823270.880504,-328.61328125,122.0703125,51.7578125,-333.49609375
1755823270.88433,-303.7109375,59.5703125,46.38671875,-316.89453125
1755823270.8881564,-296.38671875,46.38671875,59.5703125,-331.54296875
1755823270.8919826,-285.15625,72.265625,35.15625,-310.546875
1755823270.8958087,-269.04296875,64.94140625,0.48828125,-273.92578125
1755823270.8996348,-268.5546875,114.2578125,6.8359375,-265.13671875
1755823270.903461,-271.484375,122.0703125,-29.296875,-265.625
1755823270.9072874,-264.16015625,74.70703125,11.71875,-253.90625
1755823270.9111135,-221.6796875,75.68359375,63.96484375,-219.23828125
1755823270.9149396,-224.12109375,30.76171875,24.90234375,-214.84375
1755823270.918766,-229.98046875,39.0625,52.24609375,-207.51953125
1755823270.9225922,-192.3828125,62.98828125,61.03515625,-182.6171875
1755823270.9264183,-172.36328125,51.7578125,39.0625,-168.45703125
1755823270.9301589,-145.01953125,78.61328125,40.52734375,-150.87890625
1755823270.9338992,-153.80859375,120.60546875,37.59765625,-159.66796875
1755823270.9376397,-171.38671875,114.2578125,57.12890625,-190.91796875
1755823270.94138,-131.8359375,58.10546875,56.15234375,-146.484375
1755823270.9451206,-84.47265625,31.25,46.38671875,-95.703125
1755823270.9488611,-98.6328125,48.828125,52.734375,-90.33203125
1755823270.9526014,-113.28125,43.45703125,43.45703125,-95.21484375
1755823270.956342,-118.1640625,32.2265625,35.15625,-107.421875
1755823270.9600823,-88.37890625,41.015625,48.33984375,-63.4765625
1755823270.9638228,-39.0625,4.8828125,42.96875,-28.80859375
1755823270.9675632,-62.01171875,4.39453125,33.69140625,-65.4296875
1755823270.9713037,-75.68359375,47.36328125,49.8046875,-75.68359375
1755823270.9751096,-48.33984375,55.17578125,51.7578125,-33.69140625
1755823270.9789157,-33.203125,67.3828125,51.7578125,-13.671875
1755823270.9827218,-24.4140625,49.31640625,70.3125,-20.01953125
1755823270.9865277,-30.2734375,34.66796875,70.3125,-17.578125
1755823270.9903336,-3.41796875,0.0,57.6171875,7.32421875
1755823270.9941397,34.66796875,-6.34765625,50.29296875,37.59765625
1755823270.9979458,-2.9296875,8.7890625,40.52734375,9.765625
1755823271.0017517,-32.71484375,4.8828125,44.921875,-9.765625
1755823271.0055575,6.8359375,41.015625,54.6875,29.296875
1755823271.0093637,13.18359375,14.16015625,60.05859375,39.55078125
1755823271.0131698,-20.5078125,5.859375,66.40625,26.3671875
1755823271.0169756,-37.109375,26.85546875,63.4765625,13.671875
1755823271.0207407,-19.04296875,3.90625,52.734375,7.32421875
1755823271.024506,4.8828125,-20.01953125,44.921875,20.01953125
1755823271.0282707,3.90625,-34.1796875,49.8046875,26.3671875
1755823271.0320358,-18.06640625,-41.50390625,42.96875,18.5546875
1755823271.035801,-18.06640625,-22.94921875,49.31640625,14.16015625
1755823271.039566,8.30078125,2.9296875,54.19921875,23.4375
1755823271.0433311,15.625,9.27734375,47.36328125,33.69140625
1755823271.0470965,20.01953125,-25.390625,61.03515625,23.4375
1755823271.0508614,12.20703125,-9.27734375,61.5234375,22.94921875
1755823271.0546262,9.765625,31.73828125,51.26953125,31.25
1755823271.058391,31.25,23.4375,53.22265625,49.31640625
1755823271.0621564,13.671875,1.46484375,66.40625,34.1796875
1755823271.0682647,-41.015625,-14.6484375,70.80078125,4.39453125
1755823271.0743728,-34.1796875,-19.04296875,60.546875,12.20703125
1755823271.080481,6.34765625,-22.94921875,65.4296875,43.9453125
1755823271.086589,-2.9296875,-26.3671875,48.33984375,37.109375
1755823271.0926974,-26.85546875,-30.76171875,33.69140625,0.48828125
1755823271.0988057,-23.92578125,-16.6015625,54.6875,1.46484375
1755823271.104914,-16.11328125,2.9296875,61.03515625,22.4609375
1755823271.111022,-23.4375,-10.7421875,56.15234375,39.0625
1755823271.1171305,-28.80859375,-10.7421875,60.05859375,13.671875
1755823271.1232386,-33.203125,-5.859375,64.453125,-20.5078125
1755823271.1293466,-19.04296875,-7.32421875,63.96484375,5.37109375
1755823271.135455,-9.765625,-16.6015625,43.9453125,29.78515625
1755823271.1367786,-6.8359375,-53.7109375,28.80859375,10.25390625
1755823271.1381023,-22.94921875,-58.10546875,53.22265625,-0.48828125
1755823271.139426,-25.390625,0.48828125,66.89453125,8.30078125
1755823271.1407497,2.44140625,32.2265625,53.22265625,6.34765625
1755823271.1420734,-19.04296875,12.6953125,55.17578125,-2.44140625
1755823271.1433969,-26.3671875,-51.26953125,59.5703125,-22.4609375
1755823271.1447206,-26.85546875,-42.48046875,58.10546875,-8.7890625
1755823271.1460445,-30.2734375,31.25,52.24609375,18.5546875
1755823271.147368,-36.62109375,28.3203125,35.15625,0.48828125
1755823271.1486917,-54.19921875,10.25390625,39.55078125,-24.4140625
1755823271.1500154,-44.921875,-1.953125,44.921875,-18.5546875
1755823271.151339,-32.2265625,-29.78515625,34.1796875,-4.8828125
1755823271.1562283,-36.1328125,-33.203125,31.73828125,0.48828125
1755823271.161118,-68.84765625,-21.484375,41.50390625,-25.390625
1755823271.1660075,-69.3359375,-22.4609375,35.64453125,-32.71484375
1755823271.170897,-20.01953125,-25.87890625,34.66796875,3.90625
1755823271.1757865,0.48828125,-49.31640625,43.45703125,16.6015625
1755823271.180676,-33.203125,-43.9453125,51.7578125,-5.37109375
1755823271.1855657,-51.26953125,-19.53125,50.29296875,-26.3671875
1755823271.190455,-40.52734375,-54.19921875,35.15625,-32.2265625
1755823271.1953444,-27.34375,-29.296875,48.33984375,-2.9296875
1755823271.200234,-31.73828125,36.62109375,46.875,2.44140625
1755823271.2051234,-58.10546875,23.4375,33.69140625,-28.3203125
1755823271.210013,-64.453125,-8.30078125,22.4609375,-33.69140625
1755823271.2138786,-46.875,-13.671875,12.6953125,-17.08984375
1755823271.2177444,-25.390625,-20.01953125,18.5546875,-13.18359375
1755823271.22161,-46.38671875,-25.390625,35.15625,-32.71484375
1755823271.2254758,-76.66015625,-18.06640625,44.921875,-45.8984375
1755823271.2293415,-49.8046875,-6.8359375,33.203125,-30.2734375
1755823271.2332072,-38.0859375,-4.39453125,35.15625,-14.16015625
1755823271.2370727,-47.8515625,-21.484375,43.45703125,-38.0859375
1755823271.2409384,-64.453125,-34.66796875,35.15625,-57.6171875
1755823271.244804,-54.19921875,-29.296875,31.25,-27.34375
1755823271.24867,-6.34765625,-18.06640625,39.0625,0.48828125
1755823271.2525356,-37.109375,-20.5078125,19.04296875,-30.2734375
1755823271.2564013,-71.77734375,-24.4140625,1.46484375,-52.734375
1755823271.2613988,-54.6875,-22.94921875,17.578125,-36.1328125
1755823271.2663963,-41.9921875,-28.3203125,24.90234375,-24.90234375
1755823271.2713938,-53.22265625,-27.83203125,25.87890625,-31.25
1755823271.2763915,-76.171875,-24.4140625,25.87890625,-54.19921875
1755823271.281389,-78.61328125,-26.85546875,21.97265625,-58.59375
1755823271.2863865,-48.828125,-15.13671875,30.2734375,-32.2265625
1755823271.291384,-39.55078125,-21.97265625,33.69140625,-28.3203125
1755823271.2963817,-58.59375,-34.1796875,18.06640625,-44.921875
1755823271.3013792,-56.640625,-30.76171875,-2.9296875,-42.48046875
1755823271.3063767,-34.1796875,-56.15234375,7.8125,-11.71875
1755823271.3113742,-24.90234375,-59.5703125,40.0390625,-4.39453125
1755823271.3163717,-65.4296875,-20.01953125,33.69140625,-30.2734375
1755823271.3188498,-77.63671875,-20.5078125,0.9765625,-43.45703125
1755823271.3213277,-15.13671875,-25.390625,14.6484375,-17.578125
1755823271.3238058,-25.390625,-35.15625,39.55078125,-0.9765625
1755823271.3262837,-74.70703125,-6.34765625,51.7578125,-21.484375
1755823271.3287618,-65.4296875,-26.85546875,44.43359375,-46.875
1755823271.3312397,-62.01171875,-69.3359375,20.5078125,-45.41015625
1755823271.3337178,-41.015625,-8.7890625,34.1796875,-6.8359375
1755823271.336196,-50.29296875,15.625,28.80859375,-19.53125
1755823271.3386738,-74.21875,-6.8359375,6.8359375,-58.10546875
1755823271.341152,-64.453125,-2.9296875,17.578125,-59.5703125
1755823271.3436298,-63.4765625,-6.8359375,46.38671875,-31.25
1755823271.346108,-45.41015625,-28.3203125,58.59375,-25.87890625
1755823271.3498707,-53.7109375,-33.203125,40.0390625,-44.921875
1755823271.3536334,-72.265625,-15.625,21.97265625,-45.41015625
1755823271.357396,-52.24609375,-17.08984375,27.34375,-30.76171875
1755823271.3611586,-41.9921875,-36.1328125,30.2734375,-23.4375
1755823271.364921,-55.6640625,-35.15625,31.25,-44.921875
1755823271.3686838,-69.82421875,-24.90234375,27.34375,-63.96484375
1755823271.3724463,-44.43359375,-17.578125,31.25,-43.9453125
1755823271.3762093,-17.578125,-12.20703125,32.71484375,-32.71484375
1755823271.379972,-30.76171875,-18.5546875,20.01953125,-36.62109375
1755823271.3837347,-69.3359375,-30.76171875,6.34765625,-66.89453125
1755823271.3874972,-72.75390625,-43.9453125,12.20703125,-75.68359375
1755823271.39126,-42.48046875,-35.64453125,27.83203125,-37.109375
1755823271.3950105,-33.69140625,-18.5546875,28.3203125,-25.390625
1755823271.398761,-51.7578125,-10.7421875,28.3203125,-44.921875
1755823271.4025116,-75.68359375,-7.8125,29.296875,-58.10546875
1755823271.406262,-40.0390625,-13.671875,31.73828125,-32.71484375
1755823271.4100125,-26.3671875,-28.3203125,35.64453125,-24.4140625
1755823271.413763,-58.10546875,-32.2265625,36.62109375,-40.52734375
1755823271.4175136,-56.640625,-62.98828125,37.59765625,-42.96875
1755823271.4212642,-13.671875,-40.52734375,35.15625,5.37109375
1755823271.4250145,-17.578125,17.578125,21.484375,-4.39453125
1755823271.428765,-70.3125,26.3671875,19.53125,-62.5
1755823271.4325156,-77.1484375,14.16015625,19.53125,-67.87109375
1755823271.4362662,-50.78125,-20.5078125,11.71875,-44.43359375
1755823271.4399784,-14.6484375,-16.6015625,16.11328125,-23.92578125
1755823271.4436903,-12.6953125,2.9296875,15.625,-14.6484375
1755823271.4474027,-39.0625,-10.25390625,13.671875,-23.4375
1755823271.451115,-31.73828125,-13.18359375,10.7421875,-22.94921875
1755823271.454827,-6.8359375,-9.27734375,8.7890625,-7.32421875
1755823271.4585395,-27.34375,-26.85546875,0.9765625,-5.37109375
1755823271.4622517,-55.6640625,-29.296875,-7.8125,-15.625
1755823271.4659638,-36.1328125,-33.69140625,5.859375,-20.01953125
1755823271.469676,-12.20703125,-35.64453125,19.04296875,-10.25390625
1755823271.4733882,3.90625,-26.3671875,18.5546875,-1.46484375
1755823271.4771004,-26.85546875,-23.92578125,5.859375,-16.11328125
1755823271.4808123,-44.43359375,-22.4609375,16.11328125,-20.99609375
1755823271.485963,-9.765625,-31.25,20.99609375,-6.8359375
1755823271.491114,-1.46484375,-33.203125,10.25390625,-8.7890625
1755823271.4962652,-11.71875,-30.2734375,21.97265625,-9.27734375
1755823271.501416,-69.3359375,-34.1796875,19.04296875,-30.76171875
1755823271.5065668,-61.5234375,-32.2265625,0.48828125,-28.3203125
1755823271.5117178,-24.90234375,-18.5546875,-0.9765625,-13.671875
1755823271.5168686,-49.8046875,-14.16015625,7.32421875,-24.4140625
1755823271.5220194,-53.22265625,-14.16015625,8.7890625,-45.8984375
1755823271.5271702,-44.43359375,-15.13671875,7.32421875,-56.640625
1755823271.532321,-28.3203125,-20.99609375,10.7421875,-26.85546875
1755823271.537472,-33.69140625,-23.92578125,9.765625,-16.6015625
1755823271.5426228,-69.3359375,-20.01953125,9.27734375,-46.875
1755823271.5462508,-77.1484375,-15.625,18.06640625,-61.5234375
1755823271.549879,-39.55078125,3.41796875,16.6015625,-33.203125
1755823271.553507,-23.92578125,0.48828125,-1.46484375,-8.7890625
1755823271.557135,-60.546875,-32.71484375,-6.34765625,-39.55078125
1755823271.5607634,-88.37890625,-24.4140625,3.90625,-74.21875
1755823271.5643914,-42.48046875,-27.83203125,20.99609375,-35.64453125
1755823271.5680194,-18.5546875,-24.4140625,44.921875,-1.953125
1755823271.5716476,-72.265625,-13.671875,19.04296875,-41.9921875
1755823271.5752757,-89.84375,-20.01953125,-3.41796875,-64.453125
1755823271.5789037,-61.03515625,-2.44140625,17.08984375,-39.0625
1755823271.582532,-31.25,-28.3203125,27.83203125,-12.20703125
1755823271.58616,-61.03515625,-53.7109375,9.27734375,-24.90234375
1755823271.5899112,-101.07421875,-21.97265625,-6.34765625,-62.98828125
1755823271.5936627,-83.49609375,-24.90234375,7.32421875,-65.4296875
1755823271.597414,-48.828125,-39.55078125,3.90625,-38.0859375
1755823271.6011653,-39.0625,-17.08984375,-9.27734375,-31.25
1755823271.6049166,-55.6640625,-44.921875,5.859375,-36.1328125
1755823271.608668,-75.68359375,-44.43359375,17.578125,-46.875
1755823271.6124194,-53.7109375,-2.44140625,8.30078125,-31.25
1755823271.6161706,-46.38671875,5.37109375,-7.32421875,-28.80859375
1755823271.619922,-100.09765625,12.6953125,10.7421875,-68.359375
1755823271.6236734,-105.95703125,-0.9765625,32.71484375,-66.89453125
1755823271.6274247,-65.4296875,-5.37109375,29.296875,-44.43359375
1755823271.631176,-42.96875,-17.578125,13.18359375,-46.875
1755823271.6361158,-48.828125,-27.83203125,5.37109375,-43.9453125
1755823271.6410556,-69.82421875,-35.15625,18.06640625,-54.19921875
1755823271.6459954,-62.5,-63.4765625,0.9765625,-66.89453125
1755823271.6509352,-29.78515625,-54.6875,-20.01953125,-29.78515625
1755823271.655875,-37.59765625,-5.859375,11.71875,-12.20703125
1755823271.6608148,-86.42578125,-20.99609375,34.1796875,-55.6640625
1755823271.6657543,-82.51953125,-33.69140625,31.73828125,-56.640625
1755823271.670694,-37.109375,-9.27734375,30.2734375,-26.3671875
1755823271.675634,-29.78515625,-8.30078125,11.71875,-24.4140625
1755823271.6805737,-56.640625,-5.37109375,-6.8359375,-47.8515625
1755823271.6855135,-88.8671875,0.0,10.25390625,-71.2890625
1755823271.6904533,-69.82421875,-13.671875,21.97265625,-56.15234375
1755823271.693026,-55.17578125,-37.59765625,17.578125,-41.015625
1755823271.6955986,-62.98828125,-56.640625,-5.859375,-45.41015625
1755823271.6981711,-73.2421875,-41.50390625,-22.94921875,-43.45703125
1755823271.700744,-71.77734375,-14.16015625,-5.859375,-41.9921875
1755823271.7033167,-44.43359375,-0.48828125,22.4609375,-28.3203125
1755823271.7058892,-80.56640625,-28.80859375,22.4609375,-51.7578125
1755823271.7084618,-118.65234375,-56.640625,12.6953125,-83.0078125
1755823271.7110343,-69.3359375,-16.11328125,21.484375,-59.5703125
1755823271.7136073,-34.66796875,1.953125,21.484375,-29.296875
1755823271.7161798,-80.078125,-24.4140625,9.27734375,-39.0625
1755823271.7187524,-86.9140625,-55.6640625,1.46484375,-60.546875
1755823271.7213252,-67.87109375,-41.015625,-1.953125,-52.734375
1755823271.7250726,-58.59375,-0.48828125,0.9765625,-18.5546875
1755823271.7288203,-39.55078125,-17.578125,-15.13671875,-31.73828125
1755823271.7325678,-81.54296875,-47.36328125,-32.2265625,-74.70703125
1755823271.7363155,-90.33203125,-22.4609375,0.9765625,-58.10546875
1755823271.740063,-62.98828125,0.9765625,29.296875,-40.0390625
1755823271.743811,-62.01171875,-11.23046875,30.2734375,-35.64453125
1755823271.747558,-70.80078125,-20.01953125,23.4375,-51.7578125
1755823271.7513056,-75.68359375,-24.90234375,11.23046875,-69.3359375
1755823271.7550533,-62.98828125,-32.2265625,4.39453125,-51.7578125
1755823271.7588007,-44.43359375,-32.2265625,-13.18359375,-45.41015625
1755823271.7625484,-61.03515625,-43.9453125,-27.34375,-49.31640625
1755823271.766296,-87.890625,-38.57421875,-11.23046875,-41.9921875
1755823271.7700346,-72.265625,-1.46484375,10.25390625,-65.91796875
1755823271.7737732,-41.015625,-11.23046875,14.6484375,-50.78125
1755823271.7775118,-32.71484375,-26.3671875,16.11328125,-33.203125
1755823271.7812505,-73.73046875,-14.6484375,24.90234375,-72.75390625
1755823271.784989,-106.93359375,-19.04296875,1.953125,-83.984375
1755823271.7887278,-56.640625,-6.8359375,-21.97265625,-57.12890625
1755823271.7924664,-30.2734375,-0.9765625,7.32421875,-40.0390625
1755823271.796205,-75.68359375,-11.23046875,24.4140625,-42.96875
1755823271.7999437,-103.02734375,0.9765625,30.2734375,-48.33984375
1755823271.8036823,-66.40625,-13.671875,25.390625,-35.15625
1755823271.807421,-32.71484375,-41.9921875,5.37109375,-8.30078125
1755823271.8111596,-47.36328125,-38.0859375,-2.44140625,-31.25
1755823271.8149295,-77.1484375,-18.5546875,9.765625,-66.89453125
1755823271.8186998,-55.17578125,0.48828125,27.83203125,-51.26953125
1755823271.8224702,-20.99609375,-4.8828125,27.83203125,-31.73828125
1755823271.8262403,-46.38671875,-18.06640625,4.8828125,-52.734375
1755823271.8300104,-58.59375,-24.4140625,-3.41796875,-68.84765625
1755823271.8337808,-45.8984375,-21.484375,-3.90625,-53.22265625
1755823271.8375509,-39.55078125,-37.59765625,-10.7421875,-30.2734375
1755823271.841321,-56.15234375,-50.78125,-11.23046875,-29.296875
1755823271.845091,-81.0546875,-20.99609375,7.32421875,-51.7578125
1755823271.8488612,-92.7734375,1.953125,34.66796875,-58.10546875
1755823271.8526316,-57.6171875,-3.41796875,23.92578125,-29.296875
1755823271.8564017,-39.0625,-16.6015625,-4.39453125,-20.99609375
1755823271.8612254,-60.546875,-15.625,-8.7890625,-50.29296875
1755823271.866049,-68.359375,-27.83203125,-1.953125,-61.03515625
1755823271.8708727,-51.26953125,-22.4609375,0.48828125,-37.59765625
1755823271.8756964,-53.7109375,1.46484375,5.859375,-32.71484375
1755823271.88052,-74.70703125,1.46484375,14.6484375,-48.828125
1755823271.8853438,-78.125,-8.7890625,27.34375,-72.265625
1755823271.8901677,-80.078125,-18.06640625,33.69140625,-72.75390625
1755823271.8949912,-66.40625,-39.0625,20.99609375,-38.57421875
1755823271.8998148,-53.22265625,-56.15234375,5.37109375,-42.48046875
1755823271.9046383,-65.91796875,-46.875,-11.71875,-70.80078125
1755823271.9094622,-75.1953125,-20.01953125,-25.390625,-67.87109375
1755823271.914286,-48.33984375,-8.30078125,-6.34765625,-27.34375
1755823271.918092,-38.0859375,-14.6484375,22.4609375,-24.90234375
1755823271.921898,-82.03125,-13.671875,25.390625,-69.82421875
1755823271.9257042,-79.1015625,-7.32421875,15.625,-71.77734375
1755823271.9295104,-74.70703125,-18.06640625,2.9296875,-62.01171875
1755823271.9333165,-77.63671875,-35.64453125,4.8828125,-56.640625
1755823271.9371226,-63.96484375,-50.78125,2.9296875,-52.24609375
1755823271.9409287,-80.078125,-47.8515625,6.8359375,-64.453125
1755823271.9447348,-65.4296875,-31.25,15.625,-68.359375
1755823271.948541,-30.76171875,-54.19921875,-6.34765625,-49.31640625
1755823271.952347,-47.36328125,-56.15234375,-21.484375,-42.48046875
1755823271.9561532,-80.078125,-38.57421875,3.41796875,-66.89453125
1755823271.9599593,-76.171875,-43.45703125,37.59765625,-77.63671875
1755823271.9637115,-72.75390625,-22.94921875,42.96875,-56.15234375
1755823271.967464,-85.9375,-12.20703125,26.3671875,-47.36328125
1755823271.9712162,-91.30859375,-9.765625,14.6484375,-62.98828125
1755823271.974969,-89.84375,-21.484375,-2.44140625,-60.05859375
1755823271.9787211,-61.03515625,-34.66796875,-4.39453125,-37.59765625
1755823271.9824734,-47.36328125,-19.04296875,27.83203125,-20.01953125
1755823271.9862256,-82.51953125,-29.78515625,31.25,-51.7578125
1755823271.989978,-78.61328125,-36.62109375,5.859375,-68.84765625
1755823271.9937303,-45.8984375,-11.23046875,16.6015625,-31.73828125
1755823271.9974828,-39.55078125,-18.06640625,32.2265625,-21.484375
1755823272.001235,-76.66015625,-37.109375,25.390625,-42.96875
1755823272.0049877,-101.07421875,-35.64453125,5.859375,-68.84765625
1755823272.0089638,-63.96484375,-22.94921875,3.90625,-60.05859375
1755823272.01294,-41.9921875,-14.6484375,18.06640625,-29.78515625
1755823272.0169165,-40.0390625,-32.71484375,10.7421875,-39.0625
1755823272.0208926,-75.68359375,-28.3203125,-0.9765625,-67.3828125
1755823272.024869,-76.66015625,-10.25390625,15.13671875,-46.875
1755823272.0288453,-42.48046875,-16.6015625,29.78515625,-20.99609375
1755823272.0328214,-46.875,-33.69140625,-20.99609375,-39.55078125
1755823272.0367978,-78.125,-33.203125,-38.57421875,-70.3125
1755823272.040774,-84.9609375,-27.34375,27.34375,-74.21875
1755823272.0447502,-63.4765625,-40.0390625,33.203125,-61.5234375
1755823272.0487266,-54.19921875,-27.83203125,20.01953125,-60.546875
1755823272.052703,-71.77734375,-29.296875,31.73828125,-57.6171875
1755823272.056284,-98.14453125,-28.80859375,35.64453125,-58.10546875
1755823272.059865,-89.35546875,-0.48828125,26.3671875,-59.5703125
1755823272.0634458,-54.6875,8.7890625,29.296875,-45.41015625
1755823272.0670269,-65.4296875,-10.25390625,16.6015625,-61.03515625
1755823272.070608,-100.5859375,-21.484375,6.34765625,-81.0546875
1755823272.0741887,-98.6328125,-12.6953125,-3.41796875,-67.87109375
1755823272.0777698,-83.49609375,-51.26953125,-13.18359375,-48.828125
1755823272.0813508,-79.58984375,-49.31640625,10.25390625,-64.94140625
1755823272.084932,-108.88671875,17.08984375,20.01953125,-101.07421875
1755823272.088513,-118.65234375,11.71875,14.16015625,-97.65625
1755823272.0920937,-121.09375,-8.7890625,16.6015625,-90.8203125
1755823272.0956748,-169.921875,-6.34765625,5.37109375,-137.6953125
1755823272.099474,-201.171875,-44.43359375,-6.8359375,-183.59375
1755823272.1032734,-218.75,-71.2890625,-20.5078125,-193.84765625
1755823272.1070726,-239.74609375,-41.50390625,9.27734375,-199.21875
1755823272.110872,-232.91015625,-22.4609375,93.26171875,-205.56640625
1755823272.1146712,-277.83203125,-45.41015625,126.46484375,-250.48828125
1755823272.118471,-339.35546875,-14.6484375,105.95703125,-282.71484375
1755823272.12227,-336.9140625,20.01953125,81.0546875,-278.3203125
1755823272.126069,-312.01171875,7.32421875,63.96484375,-269.04296875
1755823272.1298685,-339.35546875,-12.20703125,48.828125,-285.15625
1755823272.1336677,-373.046875,-29.296875,62.98828125,-308.10546875
1755823272.1374671,-320.80078125,-23.4375,112.79296875,-276.85546875
1755823272.1412663,-287.109375,-44.921875,118.65234375,-238.28125
1755823272.1450288,-280.2734375,-41.015625,90.33203125,-233.88671875
1755823272.1487913,-275.390625,-19.53125,72.265625,-238.76953125
1755823272.1525536,-274.4140625,-25.87890625,71.2890625,-221.19140625
1755823272.156316,-236.81640625,-52.734375,72.75390625,-177.24609375
1755823272.1600783,-225.5859375,-72.265625,35.64453125,-172.8515625
1755823272.1638408,-233.3984375,-60.546875,19.04296875,-193.359375
1755823272.1676033,-208.984375,-39.55078125,25.390625,-184.08203125
1755823272.1713655,-150.390625,-14.6484375,45.8984375,-128.41796875
1755823272.1751282,-140.13671875,-46.38671875,50.29296875,-112.79296875
1755823272.1788907,-153.3203125,-64.94140625,28.80859375,-125.48828125
1755823272.182653,-146.97265625,-36.62109375,59.08203125,-100.5859375
1755823272.1864154,-120.60546875,-18.5546875,58.59375,-77.63671875
1755823272.191411,-81.54296875,-18.5546875,36.62109375,-58.59375
1755823272.1964066,-102.5390625,-41.9921875,34.66796875,-80.078125
1755823272.2014022,-114.2578125,-35.64453125,41.50390625,-94.23828125
1755823272.2063978,-82.03125,-16.6015625,60.05859375,-49.31640625
1755823272.2113934,-69.82421875,-30.2734375,45.41015625,-15.13671875
1755823272.2163892,-60.546875,-50.78125,7.8125,-15.625
1755823272.2213848,-83.0078125,-58.59375,5.37109375,-27.83203125
1755823272.2263803,-77.63671875,-46.38671875,23.4375,-28.80859375
1755823272.231376,-39.55078125,-41.50390625,27.34375,-4.39453125
1755823272.2363715,-32.2265625,-47.8515625,7.8125,-1.953125
1755823272.241367,-37.109375,-33.203125,-19.04296875,-16.6015625
1755823272.2463627,-44.921875,-23.4375,-2.9296875,-13.671875
1755823272.248978,-33.69140625,-35.15625,14.6484375,-5.37109375
1755823272.251593,-19.53125,-47.36328125,34.66796875,3.90625
1755823272.2542086,-26.3671875,-52.734375,37.59765625,19.53125
1755823272.2568238,-48.828125,-56.640625,-21.484375,9.765625
1755823272.259439,-33.69140625,-40.52734375,-21.97265625,0.0
1755823272.2620542,-7.8125,-24.90234375,24.4140625,18.06640625
1755823272.2646694,-14.16015625,-13.18359375,6.8359375,15.625
1755823272.2672846,-29.296875,-23.4375,-20.5078125,-0.9765625
1755823272.2698998,-27.83203125,-32.71484375,-10.25390625,0.48828125
1755823272.2725153,-3.90625,-23.92578125,8.30078125,13.18359375
1755823272.2751305,-6.8359375,-54.6875,7.8125,3.41796875
1755823272.2777455,-41.50390625,-72.75390625,-20.01953125,-22.4609375
1755823272.282503,-38.57421875,-40.0390625,-21.97265625,-16.6015625
1755823272.28726,-17.08984375,-44.921875,-17.08984375,4.39453125
1755823272.292017,-0.9765625,-43.45703125,-20.01953125,7.8125
1755823272.296774,-17.578125,-14.16015625,4.8828125,-10.25390625
1755823272.3015313,-33.203125,-9.765625,-1.46484375,-26.85546875
1755823272.3062885,-16.6015625,-20.01953125,-17.08984375,-8.30078125
1755823272.3110456,8.7890625,-35.15625,-18.06640625,30.2734375
1755823272.3158028,-14.6484375,-42.96875,-23.92578125,5.37109375
1755823272.32056,-29.296875,-38.0859375,-20.5078125,-33.203125
1755823272.325317,-11.71875,-44.921875,-13.18359375,-10.7421875
1755823272.330074,-18.5546875,-52.734375,-25.390625,16.6015625
1755823272.3348312,-15.625,-42.48046875,-28.80859375,2.44140625
1755823272.338649,-39.55078125,-41.50390625,-20.01953125,-20.01953125
1755823272.3424668,-47.8515625,-34.1796875,-28.80859375,-14.6484375
1755823272.3462844,-22.4609375,-16.11328125,-17.08984375,11.23046875
1755823272.3501022,-10.7421875,-18.06640625,-14.16015625,8.7890625
1755823272.35392,-10.7421875,-21.97265625,-14.16015625,-15.625
1755823272.3577375,-37.109375,-31.73828125,-30.2734375,-14.6484375
1755823272.361555,-21.484375,-41.50390625,-31.73828125,3.41796875
1755823272.3653731,-21.97265625,-44.43359375,-11.23046875,-7.32421875
1755823272.369191,-55.17578125,-27.83203125,-16.6015625,-32.71484375
1755823272.3730087,-48.828125,-8.7890625,-3.90625,-21.97265625
1755823272.3768263,-23.4375,-16.6015625,-9.765625,-16.11328125
1755823272.380644,-12.6953125,-15.13671875,-31.73828125,-10.25390625
1755823272.384454,-34.66796875,-32.2265625,-27.83203125,-21.97265625
1755823272.388264,-51.26953125,-35.15625,-34.66796875,-48.828125
1755823272.392074,-30.2734375,-62.01171875,-41.50390625,-42.48046875
1755823272.3958838,-1.953125,-60.546875,-26.3671875,-2.9296875
1755823272.3996935,-29.296875,-8.30078125,-5.37109375,-10.7421875
1755823272.4035034,-54.19921875,-14.6484375,5.37109375,-52.24609375
1755823272.407313,-38.57421875,-32.71484375,-3.90625,-43.9453125
1755823272.4111233,-45.41015625,-27.83203125,-18.5546875,-33.69140625
1755823272.4149332,-31.25,-27.34375,-22.94921875,-25.87890625
1755823272.4187431,-40.0390625,-26.85546875,-14.6484375,-21.484375
1755823272.422553,-49.8046875,-32.2265625,2.9296875,-37.59765625
1755823272.426363,-35.15625,-29.78515625,-9.765625,-30.76171875
1755823272.4302232,-42.48046875,-28.3203125,-33.203125,-25.87890625
1755823272.4340832,-55.17578125,-52.24609375,-10.25390625,-29.78515625
1755823272.4379437,-54.19921875,-46.875,2.9296875,-41.50390625
1755823272.4418037,-48.33984375,-5.37109375,-8.30078125,-60.05859375
1755823272.4456637,-58.10546875,13.18359375,-1.953125,-43.45703125
1755823272.449524,-78.61328125,-6.34765625,-9.765625,-45.41015625
1755823272.4533842,-82.51953125,-22.94921875,-14.16015625,-63.96484375
1755823272.4572442,-73.2421875,-30.2734375,-17.08984375,-58.59375
1755823272.4611044,-37.59765625,-23.92578125,-13.671875,-31.73828125
1755823272.4649646,-39.55078125,-20.99609375,-12.6953125,-30.76171875
1755823272.4688246,-78.125,-43.9453125,-17.08984375,-70.3125
1755823272.4726849,-55.6640625,-58.59375,-14.6484375,-54.19921875
1755823272.4764323,-23.92578125,-15.13671875,-10.7421875,-15.13671875
1755823272.4801798,-31.25,20.01953125,-19.04296875,-27.83203125
1755823272.4839272,-77.1484375,-7.8125,-18.5546875,-51.26953125
1755823272.487675,-88.8671875,-30.2734375,-6.8359375,-58.10546875
1755823272.4914224,-50.29296875,-26.3671875,-18.5546875,-34.66796875
1755823272.49517,-27.83203125,-22.94921875,-14.16015625,-21.97265625
1755823272.498917,-40.52734375,-23.92578125,0.0,-49.8046875
1755823272.5026648,-72.75390625,-30.2734375,16.11328125,-62.98828125
1755823272.5064125,-40.52734375,-30.2734375,26.3671875,-29.296875
1755823272.51016,-6.34765625,-17.08984375,6.8359375,-17.08984375
1755823272.5139074,-57.12890625,-2.44140625,-7.8125,-45.8984375
1755823272.517655,-92.28515625,0.9765625,2.9296875,-59.08203125
1755823272.522545,-72.75390625,-5.859375,7.8125,-55.17578125
1755823272.5274353,-41.9921875,-18.5546875,-7.8125,-31.73828125
1755823272.5323255,-26.85546875,-34.66796875,-28.80859375,-26.85546875
1755823272.5372157,-53.22265625,-36.1328125,-35.15625,-52.734375
1755823272.542106,-59.08203125,-34.66796875,-15.13671875,-53.22265625
1755823272.546996,-16.11328125,-44.921875,12.20703125,-17.578125
1755823272.551886,-23.4375,-37.59765625,-1.953125,-16.6015625
1755823272.5567763,-57.6171875,-7.32421875,2.44140625,-35.64453125
1755823272.5616665,-55.6640625,2.44140625,-1.953125,-47.36328125
1755823272.5665567,-43.45703125,-9.27734375,-11.23046875,-50.29296875
1755823272.571447,-37.109375,-17.578125,-4.39453125,-28.80859375
1755823272.576337,-45.41015625,-38.57421875,-22.4609375,-30.2734375
1755823272.578848,-71.77734375,-26.3671875,-27.34375,-55.17578125
1755823272.581359,-75.1953125,-5.859375,-1.953125,-53.22265625
1755823272.58387,-45.8984375,2.44140625,22.4609375,-31.25
1755823272.5863807,-47.36328125,0.9765625,25.390625,-33.69140625
1755823272.5888915,-97.65625,-26.3671875,16.11328125,-54.19921875
1755823272.5914023,-84.9609375,-30.2734375,6.34765625,-57.12890625
1755823272.5939136,-11.71875,-20.01953125,-14.16015625,-31.25
1755823272.5964243,-28.80859375,-20.99609375,-26.3671875,-34.66796875
1755823272.5989351,-79.1015625,-20.99609375,-11.71875,-74.21875
1755823272.6014462,-72.265625,-19.04296875,-3.90625,-76.66015625
1755823272.6039572,-37.59765625,-18.5546875,-1.953125,-51.7578125
1755823272.606468,-31.73828125,-26.85546875,2.9296875,-34.1796875
1755823272.6102014,-73.73046875,-16.11328125,3.90625,-57.6171875
1755823272.613935,-83.984375,-17.578125,-15.625,-75.68359375
1755823272.6176684,-36.1328125,-28.3203125,-0.9765625,-27.34375
1755823272.6214018,-22.94921875,-18.5546875,36.62109375,3.90625
1755823272.6251354,-53.7109375,-17.578125,40.52734375,-27.34375
1755823272.6288688,-84.47265625,-26.3671875,14.6484375,-58.10546875
1755823272.6326022,-67.3828125,-41.9921875,-8.30078125,-54.6875
1755823272.6363358,-57.6171875,-43.9453125,10.7421875,-24.90234375
1755823272.6400692,-89.35546875,-48.33984375,18.06640625,-31.73828125
1755823272.6438026,-107.421875,-62.01171875,23.4375,-62.5
1755823272.6475365,-89.84375,-74.21875,40.52734375,-50.29296875
1755823272.6512697,-70.3125,-90.33203125,32.71484375,-18.06640625
1755823272.6561637,-76.171875,-82.51953125,14.16015625,-12.20703125
1755823272.6610577,-86.42578125,-57.12890625,34.66796875,-21.97265625
1755823272.6659515,-111.81640625,-66.40625,29.296875,-31.73828125
1755823272.6708455,-72.265625,-68.359375,23.92578125,-1.953125
1755823272.6757395,-25.390625,-51.26953125,38.0859375,20.01953125
1755823272.6806335,-67.87109375,-55.17578125,37.59765625,-4.39453125
1755823272.685527,-72.75390625,-59.5703125,40.52734375,-8.7890625
1755823272.690421,-43.45703125,-61.03515625,42.48046875,0.9765625
1755823272.6953154,-25.390625,-62.5,30.76171875,15.13671875
1755823272.7002091,-19.04296875,-56.15234375,10.25390625,0.9765625
1755823272.7051032,-50.29296875,-52.734375,15.13671875,-24.4140625
1755823272.7099972,-57.12890625,-41.015625,23.4375,-18.06640625
1755823272.7137463,-39.55078125,-46.38671875,18.5546875,-1.953125
1755823272.717496,-37.59765625,-43.9453125,30.2734375,8.7890625
1755823272.7212453,-51.26953125,-31.25,41.015625,-5.859375
1755823272.724995,-76.171875,-40.52734375,29.78515625,-33.69140625
1755823272.7287445,-46.38671875,-49.8046875,20.99609375,-20.5078125
1755823272.7324936,-13.18359375,-48.828125,16.11328125,-1.46484375
1755823272.736243,-38.0859375,-43.45703125,12.6953125,-25.390625
1755823272.7399924,-75.68359375,-37.109375,18.06640625,-47.36328125
1755823272.743742,-56.15234375,-19.04296875,11.23046875,-21.97265625
1755823272.7474914,-24.4140625,-45.41015625,4.8828125,5.37109375
1755823272.7512407,-27.83203125,-61.03515625,13.671875,-18.06640625
1755823272.75499,-49.8046875,-12.6953125,23.4375,-21.97265625
1755823272.7588365,-45.8984375,7.8125,29.78515625,-11.71875
1755823272.7626822,-16.11328125,0.48828125,40.52734375,4.39453125
1755823272.766528,-27.83203125,-16.6015625,34.66796875,-4.39453125
1755823272.7703743,-63.4765625,-30.2734375,-4.8828125,-39.55078125
1755823272.7742205,-55.17578125,-32.2265625,-8.30078125,-38.0859375
1755823272.7780664,-36.62109375,-34.66796875,19.53125,-10.25390625
1755823272.7819123,-19.53125,-42.96875,9.27734375,-11.71875
1755823272.7857585,-31.73828125,-37.109375,-8.7890625,-40.52734375
1755823272.789605,-67.87109375,-17.08984375,6.8359375,-30.76171875
1755823272.7934506,-44.43359375,-9.765625,22.4609375,-6.34765625
1755823272.7972963,-13.671875,-8.7890625,25.87890625,-7.8125
1755823272.8011427,-40.52734375,-15.625,3.41796875,-22.94921875
1755823272.8049135,-76.66015625,-52.24609375,-34.66796875,-35.15625
1755823272.8086843,-37.59765625,-59.5703125,-16.11328125,-20.01953125
1755823272.8124554,-12.20703125,-30.2734375,20.99609375,-9.765625
1755823272.8162262,-41.50390625,-13.671875,34.66796875,-30.76171875
1755823272.819997,-65.91796875,-22.94921875,17.578125,-51.26953125
1755823272.823768,-66.89453125,-33.69140625,-7.8125,-52.734375
1755823272.827539,-64.94140625,-28.3203125,-3.41796875,-48.828125
1755823272.8313098,-58.10546875,-21.484375,0.9765625,-42.96875
1755823272.8350806,-41.9921875,-14.16015625,-0.9765625,-52.24609375
1755823272.8388517,-57.12890625,-18.06640625,-1.46484375,-50.78125
1755823272.8426225,-56.15234375,-40.0390625,0.9765625,-42.48046875
1755823272.846393,-50.78125,-65.4296875,-12.20703125,-52.734375
1755823272.850136,-99.12109375,-56.640625,-16.11328125,-63.4765625
1755823272.853879,-99.609375,-45.8984375,-14.16015625,-65.91796875
1755823272.8576217,-54.6875,-31.25,-15.13671875,-48.33984375
1755823272.8613646,-60.546875,-22.94921875,-0.9765625,-32.2265625
1755823272.8651073,-84.9609375,-23.92578125,7.8125,-39.55078125
1755823272.8688502,-86.42578125,-22.94921875,0.0,-63.4765625
1755823272.872593,-84.9609375,-29.78515625,1.953125,-60.546875
1755823272.8763356,-61.03515625,-38.0859375,20.99609375,-32.71484375
1755823272.8800786,-59.08203125,-45.41015625,15.625,-49.8046875
1755823272.8838212,-98.14453125,-49.31640625,-14.6484375,-83.984375
1755823272.8875642,-92.28515625,-50.29296875,-16.6015625,-64.94140625
1755823272.8913069,-71.2890625,-58.59375,3.90625,-30.76171875
1755823272.895064,-84.9609375,-44.921875,5.859375,-32.71484375
1755823272.8988206,-110.83984375,-20.99609375,-13.671875,-71.2890625
1755823272.9025776,-84.9609375,-14.16015625,-11.71875,-66.40625
1755823272.9063344,-40.0390625,-26.3671875,-14.16015625,-39.0625
1755823272.9100914,-65.4296875,-37.109375,-12.20703125,-37.59765625
1755823272.9138484,-131.8359375,-25.390625,5.37109375,-46.875
1755823272.9176052,-88.37890625,-22.4609375,7.32421875,-54.6875
1755823272.9213622,-26.85546875,-37.59765625,8.7890625,-38.57421875
1755823272.925119,-33.69140625,-38.0859375,7.8125,-24.4140625
1755823272.928876,-67.87109375,-28.3203125,-5.859375,-48.33984375
1755823272.9326327,-87.40234375,-34.1796875,-12.6953125,-68.84765625
1755823272.9363897,-61.5234375,-23.4375,0.9765625,-57.12890625
1755823272.940248,-36.1328125,-13.671875,13.671875,-34.66796875
1755823272.944106,-49.31640625,-29.296875,4.39453125,-55.6640625
1755823272.9479644,-77.63671875,-45.8984375,10.25390625,-73.73046875
1755823272.9518228,-80.56640625,-39.55078125,13.671875,-63.4765625
1755823272.955681,-49.8046875,-23.4375,0.0,-50.78125
1755823272.9595394,-33.203125,-17.578125,-2.44140625,-46.38671875
1755823272.9633975,-57.12890625,-22.4609375,0.0,-63.4765625
1755823272.9672558,-64.453125,-30.2734375,0.48828125,-64.453125
1755823272.9711142,-51.7578125,-45.41015625,-11.71875,-49.31640625
1755823272.9749722,-69.3359375,-58.10546875,-8.7890625,-35.15625
1755823272.9788306,-88.8671875,-49.8046875,-2.44140625,-52.734375
1755823272.982689,-65.91796875,-27.34375,0.9765625,-68.359375
1755823272.9875596,-50.78125,-27.34375,22.4609375,-41.50390625
1755823272.9924304,-49.31640625,-38.57421875,19.53125,-26.3671875
1755823272.997301,-52.24609375,-39.0625,-11.71875,-28.80859375
1755823273.002172,-72.265625,-35.64453125,-24.90234375,-36.62109375
1755823273.0070426,-66.40625,-8.7890625,2.44140625,-28.80859375
1755823273.0119133,-38.0859375,12.20703125,33.203125,-17.08984375
1755823273.0167842,-49.31640625,5.859375,25.390625,-33.69140625
1755823273.0216548,-83.984375,-4.39453125,11.23046875,-49.31640625
1755823273.0265255,-80.078125,-23.92578125,2.44140625,-53.7109375
1755823273.0313964,-41.9921875,-31.73828125,-2.44140625,-31.25
1755823273.0362673,-44.921875,-24.90234375,-7.32421875,-40.52734375
1755823273.041138,-78.125,-18.5546875,-15.13671875,-68.359375
1755823273.0446804,-67.87109375,-12.20703125,-11.71875,-66.40625
1755823273.0482223,-23.4375,-12.6953125,-4.39453125,-42.96875
1755823273.051765,-29.78515625,-34.1796875,10.7421875,-33.69140625
1755823273.0553074,-85.44921875,-27.34375,16.6015625,-63.96484375
1755823273.0588496,-100.5859375,-14.16015625,14.16015625,-70.3125
1755823273.062392,-39.55078125,-24.4140625,14.16015625,-38.0859375
1755823273.0659344,-9.765625,-19.53125,17.578125,-24.4140625
1755823273.0694766,-53.7109375,-9.765625,18.5546875,-46.875
1755823273.073019,-84.47265625,-8.7890625,10.7421875,-68.359375
1755823273.0765617,-63.4765625,-19.53125,7.32421875,-51.7578125
1755823273.0801036,-25.87890625,-35.15625,6.8359375,-12.6953125
1755823273.083646,-39.55078125,-38.0859375,-0.9765625,-31.73828125
1755823273.0875354,-94.23828125,-25.390625,-12.20703125,-85.9375
1755823273.0914245,-98.6328125,-44.921875,-13.671875,-75.1953125
1755823273.0953135,-48.828125,-41.015625,5.37109375,-32.71484375
1755823273.0992029,-37.109375,3.41796875,25.87890625,-31.25
1755823273.1030922,-68.359375,12.20703125,23.92578125,-48.828125
1755823273.1069813,-75.68359375,-8.7890625,15.13671875,-33.203125
1755823273.1108704,-54.6875,-28.3203125,1.953125,-10.25390625
1755823273.1147597,-44.43359375,-18.06640625,-13.671875,-17.08984375
1755823273.118649,-70.80078125,-21.484375,3.41796875,-53.7109375
1755823273.122538,-101.5625,-31.25,29.78515625,-81.54296875
1755823273.1264272,-79.58984375,-28.3203125,17.08984375,-62.01171875
1755823273.1303165,-57.6171875,-43.45703125,3.41796875,-39.55078125
1755823273.1341574,-83.49609375,-52.24609375,8.30078125,-53.7109375
1755823273.1379983,-96.6796875,-36.62109375,9.27734375,-72.265625
1755823273.1418393,-67.87109375,-21.97265625,-2.44140625,-53.22265625
1755823273.1456802,-41.50390625,-23.4375,-13.18359375,-38.0859375
1755823273.149521,-55.17578125,-31.73828125,-8.30078125,-42.96875
1755823273.1533618,-96.6796875,-34.1796875,-6.34765625,-59.5703125
1755823273.1572027,-70.3125,-29.296875,-1.953125,-64.453125
1755823273.1610436,-42.96875,-41.015625,0.48828125,-41.50390625
1755823273.1648846,-49.31640625,-39.55078125,-6.8359375,-43.9453125
1755823273.1687255,-69.3359375,-14.6484375,1.953125,-61.5234375
1755823273.1725664,-69.3359375,-13.18359375,17.08984375,-57.6171875
1755823273.176407,-64.453125,-23.92578125,20.99609375,-49.31640625
1755823273.1801133,-78.125,-16.6015625,13.18359375,-57.12890625
1755823273.1838195,-81.0546875,-24.4140625,-4.39453125,-72.75390625
1755823273.1875255,-89.35546875,-34.1796875,-29.296875,-88.37890625
1755823273.1912315,-52.734375,-29.78515625,-12.6953125,-66.40625
1755823273.1949377,-38.57421875,-37.59765625,7.8125,-27.34375
1755823273.1986437,-74.70703125,-24.90234375,1.953125,-48.828125
1755823273.20235,-73.73046875,-10.25390625,7.32421875,-75.1953125
1755823273.206056,-64.453125,-20.01953125,12.20703125,-58.10546875
1755823273.209762,-54.6875,-23.4375,0.9765625,-38.0859375
1755823273.213468,-53.22265625,-31.25,-14.6484375,-47.8515625
1755823273.2171743,-85.9375,-43.45703125,-5.37109375,-80.078125
1755823273.2208805,-98.6328125,-47.8515625,-15.13671875,-75.68359375
1755823273.2257788,-67.3828125,-43.9453125,-15.625,-51.7578125
1755823273.2306774,-44.43359375,-28.3203125,-20.99609375,-53.7109375
1755823273.235576,-79.1015625,-23.92578125,-15.625,-67.3828125
1755823273.2404745,-86.42578125,-20.01953125,26.3671875,-58.59375
1755823273.245373,-52.24609375,-17.08984375,25.390625,-28.80859375
1755823273.2502718,-54.6875,-14.6484375,18.06640625,-35.15625
1755823273.2551703,-69.3359375,-20.5078125,-1.953125,-73.73046875
1755823273.260069,-66.89453125,-34.1796875,-22.94921875,-81.0546875
1755823273.2649674,-50.78125,-33.203125,-11.71875,-53.7109375
1755823273.269866,-46.38671875,-36.1328125,-2.9296875,-42.48046875
1755823273.2747643,-90.8203125,-36.62109375,-24.4140625,-57.12890625
1755823273.279663,-110.83984375,-27.83203125,-28.3203125,-71.2890625
1755823273.2823076,-73.2421875,-20.01953125,0.48828125,-54.19921875
1755823273.2849524,-36.1328125,-31.25,-0.9765625,-38.57421875
1755823273.287597,-56.15234375,-52.734375,-13.18359375,-59.08203125
1755823273.2902417,-88.8671875,-54.6875,-5.859375,-71.77734375
1755823273.2928865,-85.44921875,-46.875,-11.23046875,-60.546875
1755823273.2955308,-62.5,-38.57421875,-13.671875,-43.45703125
1755823273.298175,-49.31640625,-36.62109375,-11.23046875,-46.875
1755823273.30082,-76.171875,-28.3203125,5.37109375,-53.22265625
1755823273.303465,-95.703125,-31.25,17.08984375,-69.3359375
1755823273.3061092,-66.40625,-38.0859375,0.9765625,-74.70703125
1755823273.308754,-56.640625,-20.99609375,-20.01953125,-34.66796875
1755823273.3113985,-82.51953125,-3.41796875,-19.04296875,-36.1328125
1755823273.3151493,-109.375,-26.85546875,-11.23046875,-75.1953125
1755823273.3189,-93.26171875,-51.26953125,-14.6484375,-60.05859375
1755823273.322651,-51.7578125,-50.29296875,-8.7890625,-23.4375
1755823273.3264017,-57.12890625,-37.59765625,-9.27734375,-37.59765625
1755823273.330152,-87.40234375,-22.94921875,10.7421875,-70.80078125
1755823273.3339028,-77.63671875,-38.0859375,21.97265625,-62.5
1755823273.3376536,-46.38671875,-38.0859375,7.8125,-39.0625
1755823273.3414042,-47.8515625,-13.671875,5.859375,-31.25
1755823273.345155,-67.87109375,-12.20703125,-11.23046875,-61.5234375
1755823273.3489058,-86.42578125,-20.99609375,-21.97265625,-63.96484375
1755823273.3526564,-64.453125,-37.109375,-3.90625,-34.66796875
1755823273.3564072,-62.01171875,-43.9453125,-12.6953125,-42.48046875
1755823273.3614054,-95.21484375,-44.43359375,-22.4609375,-72.75390625
1755823273.366403,-97.16796875,-41.015625,-4.8828125,-84.9609375
1755823273.3714015,-63.96484375,-58.10546875,4.39453125,-64.94140625
1755823273.3763998,-36.62109375,-55.17578125,3.41796875,-32.2265625
1755823273.3813975,-46.38671875,-13.18359375,-2.9296875,-38.0859375
1755823273.386396,-93.75,-16.11328125,-21.484375,-79.58984375
1755823273.391394,-77.1484375,-22.94921875,-15.625,-67.87109375
1755823273.396392,-31.25,-18.06640625,7.8125,-34.66796875
1755823273.4013903,-54.19921875,-21.484375,0.48828125,-56.15234375
1755823273.4063883,-99.12109375,-20.99609375,-20.01953125,-85.9375
1755823273.4113865,-87.40234375,-13.18359375,-14.16015625,-71.77734375
1755823273.4163847,-40.52734375,-21.484375,1.46484375,-30.2734375
1755823273.418997,-43.45703125,-35.15625,6.8359375,-33.203125
1755823273.4216094,-68.84765625,-22.4609375,1.953125,-65.4296875
1755823273.4242215,-80.56640625,-28.3203125,-5.859375,-59.5703125
1755823273.426834,-73.2421875,-44.921875,-10.7421875,-54.19921875
1755823273.4294462,-50.29296875,-30.2734375,-11.71875,-48.33984375
1755823273.4320586,-59.08203125,-17.578125,-9.27734375,-50.29296875
1755823273.434671,-83.0078125,-16.11328125,-8.7890625,-61.03515625
1755823273.4372833,-48.828125,-17.08984375,-10.25390625,-41.9921875
1755823273.4398956,-47.8515625,-37.109375,-14.16015625,-34.66796875
1755823273.4425075,-83.0078125,-40.52734375,2.44140625,-48.33984375
1755823273.44512,-67.3828125,-21.484375,16.6015625,-63.4765625
1755823273.4477324,-63.4765625,-4.8828125,6.8359375,-45.8984375
1755823273.452548,-48.828125,-6.8359375,-11.71875,-10.25390625
1755823273.4573636,-44.43359375,-27.83203125,-19.04296875,-35.15625
1755823273.4621792,-89.84375,-35.15625,7.8125,-69.82421875
1755823273.4669943,-89.35546875,-27.83203125,18.5546875,-65.4296875
1755823273.47181,-52.24609375,-19.04296875,20.01953125,-35.15625
1755823273.4766257,-48.828125,-30.76171875,22.4609375,-24.90234375
1755823273.4814413,-31.73828125,-52.24609375,7.32421875,-48.33984375
1755823273.4862568,-57.6171875,-37.109375,-6.8359375,-63.4765625
1755823273.4910722,-68.84765625,-34.66796875,-18.5546875,-54.6875
1755823273.4958878,-67.87109375,-37.109375,-21.484375,-48.828125
1755823273.500703,-83.0078125,-19.53125,-22.94921875,-61.5234375
1755823273.505519,-90.33203125,-15.625,-33.203125,-76.66015625
1755823273.5093226,-79.58984375,-34.66796875,-29.296875,-73.73046875
1755823273.5131266,-51.26953125,-49.8046875,-1.953125,-50.78125
1755823273.5169306,-61.03515625,-21.484375,11.71875,-56.640625
1755823273.5207343,-84.47265625,-13.671875,5.859375,-89.35546875
1755823273.524538,-82.51953125,-25.87890625,-1.953125,-70.80078125
1755823273.528342,-41.9921875,-30.76171875,-11.71875,-31.73828125
1755823273.532146,-46.875,-18.06640625,-7.8125,-37.59765625
1755823273.5359497,-101.5625,-12.6953125,-6.8359375,-75.1953125
1755823273.5397534,-83.49609375,-22.94921875,-6.8359375,-71.77734375
1755823273.5435574,-36.62109375,-37.59765625,-3.41796875,-18.5546875
1755823273.5473614,-40.52734375,-41.50390625,3.90625,-12.20703125
1755823273.551165,-47.36328125,-30.2734375,6.34765625,-41.015625
1755823273.554939,-65.91796875,-16.11328125,0.9765625,-72.265625
1755823273.558713,-58.59375,-9.765625,-5.859375,-66.40625
1755823273.5624871,-26.85546875,-6.8359375,1.46484375,-33.69140625
1755823273.566261,-37.59765625,-5.37109375,-3.90625,-44.921875
1755823273.570035,-55.6640625,-2.44140625,-24.4140625,-62.98828125
1755823273.573809,-29.78515625,-5.37109375,-19.53125,-44.43359375
1755823273.5775828,-19.04296875,-24.4140625,-24.4140625,-19.53125
1755823273.5813568,-40.0390625,-25.390625,-27.83203125,-32.2265625
1755823273.5851307,-58.59375,-13.18359375,-27.34375,-43.45703125
1755823273.5889049,-69.82421875,-39.0625,-37.59765625,-29.78515625
1755823273.5926788,-30.76171875,-43.45703125,-27.34375,-18.5546875
1755823273.5964527,-17.08984375,-5.37109375,-21.484375,-16.11328125
1755823273.600191,-39.55078125,1.46484375,-32.71484375,-31.25
1755823273.6039295,-28.3203125,-15.13671875,-14.6484375,-36.62109375
1755823273.607668,-19.04296875,-16.11328125,-8.7890625,-19.53125
1755823273.6114063,-19.04296875,-3.90625,-25.87890625,-12.6953125
1755823273.6151447,-21.484375,-1.46484375,-9.27734375,-38.0859375
1755823273.6188831,-43.9453125,-20.99609375,7.8125,-54.19921875
1755823273.6226213,-41.9921875,-32.2265625,6.8359375,-43.45703125
1755823273.6263597,-31.25,-29.296875,8.7890625,-22.94921875
1755823273.630098,-44.921875,-21.484375,-1.953125,-25.390625
1755823273.6338365,-59.5703125,-22.4609375,-8.7890625,-58.59375
1755823273.637575,-48.828125,-25.390625,-1.953125,-51.26953125
1755823273.6413133,-20.99609375,-17.08984375,-8.30078125,-16.11328125
1755823273.645074,-42.96875,-29.78515625,-23.92578125,-25.390625
1755823273.648835,-76.66015625,-38.0859375,-24.4140625,-57.6171875
1755823273.6525958,-57.12890625,-18.06640625,-3.41796875,-54.6875
1755823273.6563566,-31.73828125,-16.11328125,18.06640625,-25.390625
1755823273.6601174,-30.76171875,-30.2734375,6.34765625,-19.04296875
1755823273.663878,-53.7109375,-15.625,-8.30078125,-40.52734375
1755823273.6676388,-63.4765625,-14.16015625,-15.625,-56.15234375
1755823273.6713996,-33.69140625,-26.3671875,-10.25390625,-25.390625
1755823273.6751604,-25.87890625,-31.25,1.46484375,-6.34765625
1755823273.6789212,-67.3828125,-42.48046875,-3.90625,-44.43359375
1755823273.682682,-82.51953125,-36.62109375,-25.87890625,-60.546875
1755823273.6864429,-57.12890625,-30.2734375,-27.34375,-46.38671875
1755823273.690121,-43.45703125,-29.296875,9.27734375,-28.80859375
1755823273.693799,-61.5234375,-21.97265625,26.3671875,-47.8515625
1755823273.697477,-83.0078125,-16.6015625,6.8359375,-65.91796875
1755823273.7011552,-72.75390625,-27.83203125,-13.671875,-44.43359375
1755823273.7048333,-34.66796875,-37.109375,-18.06640625,-30.2734375
1755823273.7085114,-35.15625,-33.203125,-18.06640625,-36.1328125
1755823273.7121892,-65.4296875,-26.85546875,-15.13671875,-52.734375
1755823273.7158673,-62.01171875,-15.13671875,-7.8125,-42.96875
1755823273.7195454,-44.921875,-6.34765625,-12.6953125,-28.3203125
1755823273.7232234,-38.0859375,-10.25390625,-19.04296875,-28.80859375
1755823273.7269015,-73.2421875,-22.94921875,-5.37109375,-41.50390625
1755823273.7305796,-75.68359375,-35.64453125,8.7890625,-58.10546875
1755823273.734372,-41.015625,-38.57421875,7.32421875,-43.9453125
1755823273.738165,-46.38671875,-26.85546875,5.37109375,-31.73828125
1755823273.7419574,-58.10546875,-19.53125,18.5546875,-54.6875
1755823273.74575,-62.98828125,-39.55078125,15.13671875,-75.68359375
1755823273.7495427,-39.0625,-39.55078125,-2.44140625,-50.78125
1755823273.7533352,-9.27734375,-14.16015625,2.44140625,-22.94921875
1755823273.7571278,-26.3671875,-18.06640625,10.25390625,-29.296875
1755823273.7609203,-50.29296875,-26.3671875,-0.9765625,-51.26953125
1755823273.764713,-55.6640625,-28.80859375,-5.859375,-65.91796875
1755823273.7685056,-39.0625,-32.71484375,13.671875,-33.69140625
1755823273.7722983,-64.453125,-35.15625,-3.41796875,-39.0625
1755823273.7760909,-115.72265625,-39.0625,-41.015625,-86.42578125
1755823273.7811177,-83.984375,-28.80859375,-20.99609375,-74.70703125
1755823273.7861445,-43.9453125,-14.6484375,5.37109375,-36.62109375
1755823273.7911716,-56.640625,-29.296875,7.8125,-30.76171875
1755823273.7961984,-69.3359375,-41.015625,20.99609375,-55.6640625
1755823273.8012252,-87.890625,-29.78515625,27.83203125,-68.359375
1755823273.806252,-66.89453125,-21.484375,20.01953125,-42.48046875
1755823273.8112788,-42.48046875,-17.08984375,9.765625,-25.390625
1755823273.8163056,-73.2421875,-26.3671875,0.48828125,-50.78125
1755823273.8213325,-80.078125,-30.76171875,-5.859375,-60.05859375
1755823273.8263595,-56.640625,-28.80859375,-11.23046875,-40.0390625
1755823273.8313863,-44.921875,-41.015625,0.9765625,-27.83203125
1755823273.8364131,-46.38671875,-41.015625,17.578125,-39.55078125
1755823273.8401065,-67.87109375,-37.109375,12.20703125,-59.5703125
1755823273.8438,-74.21875,-45.8984375,1.953125,-71.77734375
1755823273.8474936,-55.6640625,-37.59765625,10.7421875,-53.7109375
1755823273.851187,-60.546875,-27.34375,27.83203125,-53.22265625
1755823273.8548803,-97.16796875,-14.16015625,10.7421875,-66.89453125
1755823273.858574,-79.1015625,-13.671875,-18.5546875,-61.03515625
1755823273.8622675,-37.59765625,-14.6484375,-8.30078125,-43.45703125
1755823273.8659608,-51.26953125,-34.1796875,-2.9296875,-41.50390625
1755823273.8696542,-68.84765625,-43.45703125,-3.41796875,-62.5
1755823273.8733478,-55.17578125,-23.92578125,10.7421875,-52.24609375
1755823273.877041,-46.875,-36.1328125,4.39453125,-30.2734375
1755823273.8807347,-41.9921875,-51.7578125,-11.71875,-24.4140625
1755823273.8845377,-48.828125,-38.57421875,1.953125,-42.48046875
1755823273.8883405,-81.0546875,-14.16015625,27.34375,-70.80078125
1755823273.8921432,-68.84765625,-11.23046875,12.20703125,-61.03515625
1755823273.8959465,-39.55078125,-27.83203125,-1.46484375,-34.1796875
1755823273.899749,-50.29296875,-26.85546875,12.6953125,-44.921875
1755823273.903552,-75.68359375,-18.5546875,8.30078125,-70.80078125
1755823273.9073548,-62.01171875,-32.71484375,4.8828125,-61.03515625
1755823273.9111576,-53.7109375,-51.26953125,5.37109375,-43.9453125
1755823273.9149606,-62.98828125,-41.015625,-0.48828125,-43.9453125
1755823273.9187634,-72.265625,-15.625,16.11328125,-48.828125
1755823273.9225664,-64.94140625,-8.30078125,7.32421875,-48.828125
1755823273.9263692,-34.1796875,-22.94921875,-2.44140625,-40.0390625
1755823273.9301093,-57.12890625,-30.76171875,-2.44140625,-44.43359375
1755823273.933849,-75.68359375,-30.2734375,3.41796875,-60.05859375
1755823273.9375892,-92.28515625,-53.7109375,-0.48828125,-71.77734375
1755823273.9413292,-72.265625,-56.15234375,-21.97265625,-44.43359375
1755823273.9450693,-44.43359375,-31.25,3.41796875,-23.92578125
1755823273.9488094,-70.80078125,-28.3203125,20.99609375,-50.29296875
1755823273.9525497,-95.703125,-25.390625,5.37109375,-83.984375
1755823273.9562895,-73.73046875,-20.99609375,7.32421875,-72.265625
1755823273.9600296,-29.296875,-28.3203125,13.18359375,-33.69140625
1755823273.9637694,-54.6875,-41.9921875,5.859375,-49.8046875
1755823273.9675095,-81.54296875,-47.36328125,6.8359375,-85.9375
1755823273.9712496,-76.171875,-37.59765625,11.23046875,-75.68359375
1755823273.9750135,-43.45703125,-36.1328125,4.39453125,-40.0390625
1755823273.978778,-33.69140625,-37.59765625,-6.8359375,-31.25
1755823273.9825425,-78.125,-24.90234375,-13.671875,-66.40625
1755823273.986307,-82.03125,-12.6953125,-8.30078125,-66.89453125
1755823273.9900708,-45.41015625,-33.69140625,-9.27734375,-41.015625
1755823273.9938352,-32.71484375,-40.52734375,-2.9296875,-41.015625
1755823273.9975996,-65.4296875,-12.6953125,26.85546875,-54.19921875
1755823274.0013638,-84.9609375,-21.97265625,35.15625,-57.12890625
1755823274.005128,-67.3828125,-32.71484375,16.6015625,-26.3671875
1755823274.0088923,-53.22265625,-29.296875,5.37109375,-14.16015625
1755823274.0126567,-52.734375,-26.85546875,-0.48828125,-37.109375
1755823274.0164208,-69.3359375,-5.37109375,-16.11328125,-41.015625
1755823274.0201657,-63.4765625,-3.41796875,-6.34765625,-27.34375
1755823274.0239103,-37.59765625,-20.5078125,14.16015625,-24.4140625
1755823274.0276551,-33.69140625,-25.87890625,14.6484375,-38.57421875
1755823274.0314,-72.265625,-25.390625,24.4140625,-59.08203125
1755823274.0351448,-69.82421875,-22.94921875,21.484375,-55.6640625
1755823274.0388896,-41.9921875,-33.69140625,1.953125,-35.15625
1755823274.0426345,-47.36328125,-48.33984375,-10.25390625,-36.62109375
1755823274.046379,-73.73046875,-53.7109375,-15.625,-53.22265625
1755823274.0501242,-89.35546875,-42.48046875,-13.18359375,-58.10546875
1755823274.0538688,-85.9375,-26.3671875,-9.765625,-43.45703125
1755823274.0576136,-59.5703125,-20.5078125,-7.8125,-24.4140625
1755823274.0613585,-48.33984375,-29.296875,-20.99609375,-38.57421875
1755823274.0650775,-76.171875,-48.33984375,-21.97265625,-51.7578125
1755823274.0687966,-66.40625,-37.109375,-5.37109375,-47.36328125
1755823274.0725155,-47.36328125,-28.3203125,-21.484375,-41.015625
1755823274.0762346,-60.546875,-54.6875,-21.484375,-44.43359375
1755823274.0799537,-85.9375,-35.15625,8.7890625,-58.10546875
1755823274.0836728,-76.66015625,-10.25390625,-1.953125,-56.640625
1755823274.087392,-54.6875,-17.08984375,-1.46484375,-43.45703125
1755823274.091111,-70.80078125,-7.8125,13.18359375,-34.66796875
1755823274.09483,-77.1484375,-17.08984375,0.0,-69.82421875
1755823274.098549,-74.70703125,-38.0859375,-3.41796875,-78.125
1755823274.102268,-61.5234375,-36.62109375,13.18359375,-43.45703125
1755823274.105987,-47.8515625,-29.78515625,17.578125,-40.0390625
1755823274.1098826,-75.1953125,-32.2265625,0.9765625,-71.77734375
1755823274.1137784,-75.68359375,-39.0625,-6.34765625,-68.359375
1755823274.117674,-53.22265625,-41.9921875,-0.48828125,-19.53125
1755823274.1215696,-36.62109375,-42.96875,-9.765625,-0.9765625
1755823274.1254652,-45.8984375,-27.83203125,-24.4140625,-43.9453125
1755823274.129361,-95.21484375,-14.6484375,-18.5546875,-100.5859375
1755823274.1332564,-82.03125,-6.34765625,-7.32421875,-84.9609375
1755823274.137152,-41.50390625,4.8828125,-5.859375,-56.15234375
1755823274.1410477,-55.6640625,7.32421875,-23.4375,-79.58984375
1755823274.1449432,-74.70703125,4.39453125,-36.62109375,-100.09765625
1755823274.148839,-78.61328125,0.9765625,-51.26953125,-105.46875
1755823274.1527345,-52.24609375,3.90625,-48.828125,-86.9140625
1755823274.1575692,-61.5234375,1.953125,-42.48046875,-86.42578125
1755823274.1624038,-81.0546875,0.0,-56.640625,-111.328125
1755823274.1672385,-72.265625,-8.7890625,-63.96484375,-109.86328125
1755823274.1720731,-38.0859375,1.46484375,-62.98828125,-84.47265625
1755823274.1769078,-40.0390625,27.34375,-84.47265625,-95.703125
1755823274.1817424,-73.2421875,23.4375,-88.8671875,-104.00390625
1755823274.186577,-56.15234375,15.625,-53.7109375,-79.58984375
1755823274.1914115,-41.50390625,19.53125,-44.43359375,-69.82421875
1755823274.1962464,-23.4375,24.90234375,-48.33984375,-70.80078125
1755823274.201081,-21.97265625,31.73828125,-35.15625,-71.77734375
1755823274.2059157,-40.0390625,28.3203125,-27.34375,-83.49609375
1755823274.2107503,-38.57421875,22.4609375,-40.52734375,-72.75390625
1755823274.2144818,-13.671875,19.04296875,-47.36328125,-49.31640625
1755823274.2182136,-19.53125,10.25390625,-28.80859375,-50.29296875
1755823274.221945,-48.33984375,21.97265625,-24.4140625,-82.03125
1755823274.2256763,-39.55078125,30.2734375,-32.2265625,-70.3125
1755823274.2294085,-21.97265625,24.4140625,-30.76171875,-38.57421875
1755823274.2331398,-15.625,13.671875,-35.15625,-42.96875
1755823274.2368712,-26.85546875,-4.8828125,-31.73828125,-61.03515625
1755823274.240603,-36.62109375,-11.71875,-20.99609375,-62.98828125
1755823274.2443345,-15.13671875,-16.11328125,-22.94921875,-36.1328125
1755823274.248066,-9.27734375,-13.671875,-20.99609375,-19.04296875
1755823274.2517977,-56.640625,5.859375,-22.4609375,-48.828125
1755823274.2555292,-54.19921875,9.27734375,-29.78515625,-60.05859375
1755823274.25935,-24.90234375,-3.90625,-20.99609375,-44.43359375
1755823274.263171,-18.06640625,-17.578125,-13.18359375,-30.76171875
1755823274.266992,-33.203125,-21.97265625,-20.01953125,-37.109375
1755823274.2708127,-60.05859375,-23.4375,-22.4609375,-56.15234375
1755823274.2746336,-44.43359375,-18.5546875,-17.578125,-38.57421875
1755823274.2784548,-11.23046875,-10.7421875,-18.06640625,-16.6015625
1755823274.2822757,-22.94921875,-4.39453125,-28.3203125,-20.99609375
1755823274.2860966,-57.12890625,3.41796875,-23.4375,-43.9453125
1755823274.2899177,-37.109375,-6.8359375,-13.671875,-41.015625
1755823274.2937384,-31.73828125,-17.578125,-11.23046875,-5.859375
1755823274.2975593,-56.640625,-25.87890625,-9.27734375,-15.13671875
1755823274.3013802,-53.22265625,-24.90234375,-19.04296875,-37.59765625
1755823274.3063183,-51.7578125,-24.4140625,-26.3671875,-43.45703125
1755823274.3112564,-32.71484375,-30.2734375,-23.92578125,-41.50390625
1755823274.3161943,-22.4609375,-8.30078125,-10.7421875,-21.97265625
1755823274.3211324,-68.84765625,-4.8828125,-14.6484375,-37.59765625
1755823274.3260703,-66.89453125,-19.04296875,-20.01953125,-49.31640625
1755823274.3310084,-35.64453125,-8.30078125,-7.8125,-29.78515625
1755823274.3359466,-17.578125,-3.90625,2.9296875,-24.90234375
1755823274.3408847,-51.7578125,-20.99609375,-1.46484375,-49.8046875
1755823274.3458228,-78.61328125,-33.69140625,-2.9296875,-59.08203125
1755823274.350761,-36.62109375,-36.1328125,-1.46484375,-39.0625
1755823274.3556988,-32.71484375,-33.69140625,-16.11328125,-28.3203125
1755823274.360637,-58.10546875,-15.625,-21.97265625,-32.71484375
1755823274.3632083,-84.47265625,5.859375,-24.4140625,-50.29296875
1755823274.36578,-98.6328125,-5.37109375,-23.4375,-57.6171875
1755823274.3683517,-59.08203125,-24.4140625,-6.8359375,-37.109375
1755823274.3709228,-41.9921875,-37.109375,-8.7890625,-34.66796875
1755823274.373494,-71.2890625,-38.0859375,-13.671875,-66.40625
1755823274.3760655,-76.66015625,-30.76171875,-6.8359375,-69.82421875
1755823274.3786373,-49.31640625,-28.3203125,-5.859375,-37.59765625
1755823274.381209,-34.66796875,-16.11328125,-5.859375,-31.73828125
1755823274.38378,-60.05859375,-4.8828125,-7.8125,-47.36328125
1755823274.3863516,-75.1953125,-7.8125,-10.7421875,-67.3828125
1755823274.3889232,-48.33984375,-24.90234375,-13.18359375,-44.921875
1755823274.3914945,-36.62109375,-29.296875,-26.85546875,-13.671875
1755823274.3953524,-68.359375,-22.4609375,-26.85546875,-30.2734375
1755823274.3992105,-86.42578125,-30.2734375,-13.671875,-69.82421875
1755823274.4030683,-84.47265625,-39.55078125,-11.23046875,-70.80078125
1755823274.4069262,-62.5,-45.8984375,-9.27734375,-30.2734375
1755823274.410784,-47.8515625,-38.57421875,-6.8359375,-8.30078125
1755823274.414642,-69.3359375,-24.90234375,-15.625,-43.45703125
1755823274.4185,-85.44921875,-25.87890625,-26.3671875,-79.1015625
1755823274.4223578,-69.3359375,-20.5078125,-35.15625,-49.31640625
1755823274.4262156,-58.10546875,-28.80859375,-24.90234375,-37.109375
1755823274.4300735,-68.84765625,-29.78515625,-5.37109375,-63.96484375
1755823274.4339316,-79.58984375,-20.99609375,-13.18359375,-67.3828125
1755823274.4377894,-62.01171875,-39.0625,-20.5078125,-52.734375
1755823274.4414277,-37.59765625,-46.875,-28.80859375,-37.59765625
1755823274.4450662,-77.1484375,-37.109375,-34.1796875,-52.24609375
1755823274.4487045,-100.5859375,-49.8046875,-28.80859375,-72.75390625
1755823274.4523427,-61.03515625,-56.640625,-35.64453125,-49.31640625
1755823274.4559813,-41.50390625,-50.78125,-41.9921875,-27.83203125
1755823274.4596195,-56.15234375,-32.71484375,-23.4375,-41.015625
1755823274.4632578,-60.05859375,-25.87890625,-3.90625,-66.40625
1755823274.4668963,-56.640625,-22.94921875,5.37109375,-49.8046875
1755823274.4705346,-32.71484375,-21.97265625,3.90625,-27.34375
1755823274.4741728,-34.1796875,-18.06640625,-11.23046875,-39.55078125
1755823274.477811,-75.1953125,-22.4609375,-12.6953125,-57.12890625
1755823274.4814496,-70.80078125,-30.76171875,-12.6953125,-54.6875
1755823274.4864302,-48.828125,-47.36328125,-25.390625,-37.59765625
1755823274.4914107,-46.875,-56.640625,-26.3671875,-30.2734375
1755823274.4963915,-64.453125,-19.04296875,-5.37109375,-46.875
1755823274.501372,-69.82421875,0.0,10.7421875,-65.91796875
1755823274.506353,-48.828125,-9.27734375,11.71875,-43.45703125
1755823274.5113337,-26.85546875,-14.6484375,3.41796875,-26.3671875
1755823274.516314,-50.78125,-8.7890625,-2.44140625,-28.80859375
1755823274.5212946,-81.0546875,-27.83203125,-8.30078125,-39.55078125
1755823274.5262752,-68.359375,-41.015625,-18.06640625,-50.29296875
1755823274.5312555,-33.69140625,-37.109375,-16.6015625,-28.3203125
1755823274.5362363,-36.62109375,-41.9921875,-9.765625,-33.69140625
1755823274.541217,-74.70703125,-38.57421875,-2.9296875,-65.91796875
1755823274.544984,-68.359375,-25.390625,-18.06640625,-66.40625
1755823274.5487514,-23.4375,-10.25390625,-21.97265625,-33.203125
1755823274.5525184,-6.34765625,-0.9765625,-13.18359375,-23.92578125
1755823274.5562856,-50.78125,-7.8125,-39.0625,-55.17578125
1755823274.5600526,-68.359375,-29.78515625,-40.52734375,-67.3828125
1755823274.56382,-44.921875,-29.78515625,-5.37109375,-43.45703125
1755823274.567587,-48.828125,-19.53125,0.9765625,-31.25
1755823274.571354,-74.21875,-28.80859375,-7.8125,-53.7109375
1755823274.5751212,-94.7265625,-27.34375,-5.859375,-74.21875
1755823274.5788882,-60.546875,-11.23046875,1.46484375,-59.08203125
1755823274.5826554,-13.18359375,-12.6953125,10.25390625,-23.92578125
1755823274.5864224,-44.43359375,-23.4375,3.41796875,-37.109375
1755823274.5901167,-73.2421875,-21.97265625,3.90625,-61.5234375
1755823274.5938108,-60.05859375,-23.4375,-1.953125,-51.26953125
1755823274.597505,-48.828125,-27.83203125,-9.27734375,-34.66796875
1755823274.6011992,-41.015625,-37.59765625,-7.8125,-41.015625
1755823274.6048934,-64.453125,-42.96875,-4.8828125,-70.80078125
1755823274.6085875,-68.84765625,-21.484375,-3.41796875,-65.4296875
1755823274.6122818,-45.8984375,-14.16015625,-10.25390625,-30.2734375
1755823274.615976,-40.0390625,-17.578125,-22.94921875,-27.34375
1755823274.6196702,-65.4296875,-34.66796875,-28.80859375,-55.17578125
1755823274.6233644,-85.9375,-41.50390625,-11.23046875,-49.31640625
1755823274.6270585,-65.91796875,-19.04296875,-2.9296875,-45.8984375
1755823274.6307528,-54.19921875,-13.671875,-2.44140625,-49.31640625
1755823274.6346729,-62.01171875,-13.18359375,4.8828125,-57.6171875
1755823274.638593,-104.00390625,-19.53125,-1.953125,-92.7734375
1755823274.6425128,-101.5625,-26.3671875,-5.37109375,-76.66015625
1755823274.6464329,-70.80078125,-18.5546875,-0.9765625,-66.89453125
1755823274.650353,-91.30859375,-7.8125,0.0,-87.40234375
1755823274.654273,-127.44140625,-5.859375,-4.8828125,-110.3515625
1755823274.658193,-151.85546875,-3.90625,-12.20703125,-142.578125
1755823274.6621132,-143.06640625,4.8828125,-21.97265625,-139.16015625
1755823274.6660333,-154.296875,-10.7421875,-13.18359375,-146.97265625
1755823274.669953,-203.61328125,-2.9296875,-2.44140625,-197.265625
1755823274.6738732,-220.21484375,29.296875,-7.8125,-224.12109375
1755823274.6777933,-216.30859375,5.37109375,-0.48828125,-215.8203125
1755823274.68141,-219.23828125,-0.9765625,8.30078125,-210.44921875
1755823274.6850266,-249.0234375,33.203125,2.44140625,-233.3984375
1755823274.6886437,-271.484375,46.38671875,-4.39453125,-257.8125
1755823274.6922605,-236.81640625,34.1796875,-3.90625,-233.88671875
1755823274.6958768,-208.0078125,-7.32421875,4.39453125,-196.77734375
1755823274.6994936,-222.16796875,-1.46484375,15.625,-201.171875
1755823274.7031105,-227.5390625,39.0625,18.5546875,-214.35546875
1755823274.706727,-202.1484375,36.62109375,6.34765625,-194.82421875
1755823274.7103438,-147.4609375,-21.97265625,-6.34765625,-152.34375
1755823274.7139606,-128.41796875,-36.62109375,-12.20703125,-131.8359375
1755823274.7175772,-159.1796875,9.765625,-22.94921875,-148.4375
1755823274.721194,-167.96875,37.109375,-18.5546875,-144.53125
1755823274.7261384,-121.09375,29.296875,-3.90625,-90.8203125
1755823274.731083,-94.7265625,5.37109375,5.37109375,-81.0546875
1755823274.7360272,-102.5390625,2.44140625,-3.90625,-106.93359375
1755823274.7409718,-98.14453125,-14.6484375,-6.34765625,-93.26171875
1755823274.745916,-83.49609375,-30.76171875,-11.23046875,-54.19921875
1755823274.7508607,-63.4765625,-9.765625,-18.5546875,-39.0625
1755823274.755805,-72.265625,-18.5546875,-13.18359375,-66.40625
1755823274.760749,-72.75390625,-48.33984375,-5.859375,-60.546875
1755823274.765694,-47.36328125,-54.6875,10.25390625,-25.87890625
1755823274.7706382,-28.80859375,-33.69140625,-1.953125,-10.25390625
1755823274.7755828,-27.83203125,-15.625,-9.765625,-31.73828125
1755823274.780527,-48.33984375,-27.34375,-2.44140625,-39.55078125
1755823274.783105,-34.66796875,-41.015625,-1.953125,-10.7421875
1755823274.785683,-15.13671875,-44.43359375,12.6953125,6.8359375
1755823274.7882607,-36.62109375,-46.875,19.04296875,-3.41796875
1755823274.7908387,-46.38671875,-60.05859375,6.34765625,-22.4609375
1755823274.7934165,-28.3203125,-61.5234375,0.9765625,-10.25390625
1755823274.7959943,-17.578125,-53.7109375,-4.39453125,5.37109375
1755823274.7985723,-16.11328125,-49.8046875,-1.953125,3.41796875
1755823274.80115,-20.99609375,-52.24609375,-13.671875,1.46484375
1755823274.803728,-24.4140625,-58.10546875,-19.53125,-13.671875
1755823274.806306,-6.34765625,-60.05859375,-8.30078125,12.20703125
1755823274.808884,-1.953125,-57.12890625,1.953125,39.0625
1755823274.8114617,-15.625,-38.57421875,11.23046875,20.5078125
1755823274.815214,-35.15625,-30.2734375,-6.34765625,-9.765625
1755823274.8189662,-18.06640625,-23.4375,-12.20703125,1.953125
1755823274.822718,19.53125,-34.1796875,4.8828125,29.296875
1755823274.8264704,-3.41796875,-33.203125,18.06640625,6.8359375
1755823274.8302226,-30.2734375,-20.01953125,19.04296875,-5.859375
1755823274.8339748,-3.90625,-27.34375,12.6953125,6.34765625
1755823274.837727,22.4609375,-43.9453125,3.41796875,24.90234375
1755823274.8414793,6.8359375,-46.875,4.39453125,29.78515625
1755823274.8452315,-12.6953125,-32.71484375,-0.9765625,-8.30078125
1755823274.8489835,-4.8828125,-20.99609375,-2.9296875,-16.6015625
1755823274.8527358,18.06640625,-26.3671875,4.39453125,30.2734375
1755823274.856488,9.27734375,-37.59765625,-3.41796875,28.3203125
1755823274.8603046,-13.671875,-37.59765625,-7.32421875,-4.8828125
1755823274.8641212,-0.9765625,-33.203125,5.859375,-2.9296875
1755823274.8679376,25.87890625,-36.62109375,-2.44140625,22.94921875
1755823274.8717542,19.04296875,-40.52734375,-12.20703125,32.71484375
1755823274.8755708,-7.32421875,-26.85546875,2.9296875,9.765625
1755823274.8793874,-19.53125,-13.671875,3.90625,-8.30078125
1755823274.883204,-3.90625,-18.5546875,10.7421875,8.7890625
1755823274.8870206,15.13671875,-20.99609375,14.6484375,27.34375
1755823274.8908372,-7.32421875,-26.85546875,3.90625,7.8125
1755823274.8946536,-17.08984375,-44.43359375,-6.34765625,-5.37109375
1755823274.8984702,7.8125,-40.0390625,-5.37109375,-14.16015625
1755823274.9022868,5.37109375,-16.6015625,0.9765625,-1.953125
1755823274.9071813,-8.30078125,-19.04296875,-8.7890625,5.859375
1755823274.9120755,-15.625,-31.25,-2.9296875,-12.20703125
1755823274.91697,-13.18359375,-34.1796875,11.23046875,-11.23046875
1755823274.9218645,9.27734375,-25.390625,13.18359375,-1.46484375
1755823274.9267588,0.48828125,-9.765625,10.25390625,1.46484375
1755823274.931653,-27.83203125,-11.23046875,7.32421875,-20.5078125
1755823274.9365475,-34.1796875,-13.18359375,13.18359375,-18.06640625
1755823274.941442,-11.71875,-28.80859375,6.34765625,10.25390625
1755823274.9463365,4.8828125,-46.875,-7.8125,9.765625
1755823274.9512308,-29.78515625,-45.41015625,-10.25390625,-20.99609375
1755823274.956125,-50.29296875,-34.66796875,-10.25390625,-38.0859375
1755823274.9610195,-33.203125,-28.3203125,-19.04296875,-20.99609375
1755823274.964748,-13.671875,-32.2265625,-20.99609375,-6.34765625
1755823274.9684763,-25.390625,-37.109375,-2.44140625,-12.6953125
1755823274.9722052,-49.31640625,-25.390625,7.8125,-37.59765625
1755823274.9759338,-33.203125,-17.08984375,-2.9296875,-20.99609375
1755823274.9796622,3.41796875,-25.390625,-12.6953125,1.46484375
1755823274.9833908,-8.7890625,-28.80859375,-3.41796875,-15.625
1755823274.9871194,-47.8515625,-21.97265625,4.8828125,-33.203125
1755823274.9908478,-43.9453125,-41.015625,2.44140625,-35.15625
1755823274.9945765,-9.765625,-40.52734375,2.9296875,-20.99609375
1755823274.998305,-21.484375,-28.80859375,-5.859375,-12.20703125
1755823275.0020337,-56.15234375,-40.0390625,-13.18359375,-27.83203125
1755823275.005762,-66.89453125,-20.5078125,-16.11328125,-50.29296875
1755823275.0107968,-43.9453125,-14.6484375,-13.671875,-25.87890625
1755823275.0158317,-6.8359375,-22.94921875,-8.7890625,-4.39453125
1755823275.0208662,-30.2734375,-20.01953125,-19.04296875,-29.78515625
1755823275.0259008,-82.51953125,-21.484375,-29.78515625,-41.9921875
1755823275.0309355,-52.24609375,-31.25,-20.99609375,-26.85546875
1755823275.0359702,3.90625,-27.34375,-5.37109375,-2.9296875
1755823275.0410051,-22.4609375,-15.625,3.90625,-21.484375
1755823275.0460398,-57.6171875,-27.34375,-0.9765625,-55.17578125
1755823275.0510745,-51.7578125,-31.25,-9.765625,-47.8515625
1755823275.0561092,-30.76171875,-18.5546875,-9.27734375,-18.06640625
1755823275.061144,-37.59765625,-24.4140625,-26.3671875,-22.4609375
1755823275.0661786,-60.05859375,-34.1796875,-37.109375,-52.24609375
1755823275.0686896,-65.91796875,-41.9921875,-27.83203125,-70.80078125
1755823275.0712006,-38.0859375,-38.0859375,-23.92578125,-42.96875
1755823275.0737114,-6.8359375,-31.73828125,-11.23046875,-16.6015625
1755823275.0762224,-46.38671875,-30.2734375,4.39453125,-50.29296875
1755823275.0787334,-100.5859375,-29.296875,3.90625,-77.1484375
1755823275.0812445,-93.75,-37.59765625,1.953125,-61.03515625
1755823275.0837555,-61.5234375,-37.59765625,9.27734375,-42.48046875
1755823275.0862665,-74.70703125,-38.57421875,18.06640625,-55.17578125
1755823275.0887775,-96.19140625,-46.38671875,8.7890625,-77.1484375
1755823275.0912883,-83.49609375,-48.33984375,-2.9296875,-76.171875
1755823275.0937994,-67.87109375,-51.26953125,-8.30078125,-58.10546875
1755823275.0963104,-64.94140625,-54.6875,-13.18359375,-64.453125
1755823275.100129,-93.75,-46.875,-17.578125,-68.84765625
1755823275.1039467,-89.84375,-46.875,-29.296875,-50.78125
1755823275.107765,-60.05859375,-45.41015625,-20.99609375,-45.8984375
1755823275.1115832,-62.5,-41.9921875,-6.8359375,-42.48046875
1755823275.1154015,-79.1015625,-37.109375,8.30078125,-69.3359375
1755823275.1192198,-86.9140625,-35.64453125,-2.9296875,-84.9609375
1755823275.1230378,-57.12890625,-41.9921875,-19.04296875,-53.22265625
1755823275.126856,-40.0390625,-58.10546875,-4.8828125,-26.85546875
1755823275.1306744,-62.98828125,-65.4296875,-2.9296875,-44.43359375
1755823275.1344924,-79.1015625,-38.57421875,4.8828125,-53.22265625
1755823275.138311,-73.73046875,-26.3671875,6.34765625,-37.59765625
1755823275.142129,-48.33984375,-28.80859375,0.9765625,-21.97265625
1755823275.1458051,-54.6875,-33.69140625,-3.41796875,-40.52734375
1755823275.1494815,-91.30859375,-38.0859375,-4.8828125,-62.5
1755823275.1531577,-91.30859375,-45.41015625,0.9765625,-51.26953125
1755823275.156834,-60.546875,-56.15234375,0.9765625,-30.76171875
1755823275.1605103,-48.33984375,-45.8984375,-6.34765625,-36.1328125
1755823275.1641865,-91.30859375,-38.57421875,-22.4609375,-72.75390625
1755823275.167863,-91.30859375,-48.33984375,-22.94921875,-65.4296875
1755823275.171539,-38.0859375,-44.921875,-7.32421875,-34.66796875
1755823275.1752152,-51.7578125,-30.76171875,-5.37109375,-37.109375
1755823275.1788914,-81.54296875,-41.015625,-0.9765625,-58.59375
1755823275.1825678,-94.23828125,-42.48046875,-6.8359375,-73.73046875
1755823275.186244,-64.453125,-27.83203125,-11.23046875,-53.7109375
1755823275.1899626,-40.0390625,-23.4375,-2.44140625,-31.25
1755823275.1936812,-77.63671875,-33.203125,-16.11328125,-46.875
1755823275.1974,-87.890625,-30.76171875,-22.94921875,-61.03515625
1755823275.2011185,-63.96484375,-28.80859375,-2.9296875,-51.26953125
1755823275.204837,-61.5234375,-29.296875,-2.44140625,-37.59765625
1755823275.2085557,-63.4765625,-22.94921875,-15.13671875,-33.69140625
1755823275.2122743,-77.63671875,-35.64453125,-11.23046875,-55.6640625
1755823275.215993,-67.87109375,-47.8515625,-12.6953125,-57.12890625
1755823275.2197115,-38.0859375,-37.59765625,-13.671875,-38.0859375
1755823275.2234302,-55.6640625,-17.08984375,-0.48828125,-43.9453125
1755823275.2271488,-113.28125,-20.99609375,-1.46484375,-60.05859375
1755823275.2308674,-107.91015625,-28.3203125,-9.765625,-66.89453125
1755823275.2346342,-31.73828125,-37.59765625,-8.7890625,-41.50390625
1755823275.238401,-20.99609375,-31.73828125,1.46484375,-25.390625
1755823275.2421677,-63.4765625,-17.08984375,7.32421875,-53.22265625
1755823275.2459345,-68.359375,-40.52734375,-15.625,-65.91796875
1755823275.2497013,-53.22265625,-30.76171875,-21.97265625,-41.015625
1755823275.253468,-40.52734375,-5.37109375,-15.625,-25.87890625
1755823275.2572348,-62.98828125,-16.6015625,-21.97265625,-42.48046875
1755823275.2610016,-98.14453125,-31.25,-9.765625,-56.15234375
1755823275.2647684,-78.61328125,-21.97265625,-8.7890625,-50.29296875
1755823275.2685351,-30.76171875,-11.23046875,-19.04296875,-28.3203125
1755823275.272302,-25.390625,-23.92578125,-10.7421875,-10.7421875
1755823275.2760687,-60.05859375,-23.92578125,-5.37109375,-32.2265625
1755823275.2810004,-72.75390625,-17.08984375,-12.6953125,-67.3828125
1755823275.285932,-64.453125,-21.484375,-10.25390625,-57.12890625
1755823275.2908638,-69.82421875,-22.4609375,-12.6953125,-49.8046875
1755823275.2957954,-85.44921875,-22.94921875,-24.90234375,-81.54296875
1755823275.3007271,-93.26171875,-23.92578125,-16.11328125,-94.7265625
1755823275.3056588,-71.77734375,-20.5078125,-15.13671875,-66.89453125
1755823275.3105905,-41.9921875,-33.203125,-26.85546875,-44.921875
1755823275.315522,-69.82421875,-45.41015625,-21.97265625,-69.82421875
1755823275.3204536,-104.00390625,-22.94921875,-20.5078125,-86.42578125
1755823275.325385,-69.82421875,-18.5546875,-23.4375,-62.5
1755823275.330317,-31.73828125,-35.64453125,-24.90234375,-43.9453125
1755823275.3352487,-71.2890625,-30.76171875,-20.01953125,-62.01171875
1755823275.3389273,-87.890625,-16.11328125,-13.18359375,-79.1015625
1755823275.342606,-59.5703125,-8.7890625,-25.390625,-65.4296875
1755823275.3462849,-50.78125,-9.765625,-37.109375,-38.0859375
1755823275.3499634,-66.89453125,-25.390625,-24.4140625,-52.24609375
1755823275.353642,-69.82421875,-31.25,-13.671875,-81.54296875
1755823275.3573208,-57.12890625,-22.94921875,-12.20703125,-70.3125
1755823275.3609996,-43.45703125,-30.76171875,-8.30078125,-33.203125
1755823275.364678,-54.6875,-31.73828125,-10.7421875,-41.9921875
1755823275.3683567,-80.56640625,-20.01953125,-16.11328125,-72.265625
1755823275.3720355,-69.82421875,-21.484375,-21.484375,-59.5703125
1755823275.3757143,-44.921875,-27.34375,-31.73828125,-44.43359375
1755823275.3793929,-34.1796875,-28.80859375,-29.296875,-40.52734375
1755823275.383351,-49.31640625,-30.2734375,-15.625,-60.05859375
1755823275.38731,-84.47265625,-15.13671875,-11.23046875,-71.2890625
1755823275.3912685,-79.1015625,-4.39453125,-5.37109375,-43.9453125
1755823275.395227,-31.25,-18.06640625,-8.7890625,-32.71484375
1755823275.3991854,-39.0625,-26.85546875,-12.20703125,-39.55078125
1755823275.403144,-68.84765625,-25.87890625,-13.671875,-53.22265625
1755823275.4071026,-66.40625,-30.76171875,-13.671875,-53.22265625
1755823275.411061,-61.5234375,-32.2265625,-27.34375,-47.8515625
1755823275.4150195,-57.12890625,-33.69140625,-32.71484375,-49.31640625
1755823275.4189782,-52.24609375,-30.76171875,-6.34765625,-61.5234375
1755823275.422937,-74.21875,-27.34375,2.9296875,-79.1015625
1755823275.4268951,-54.6875,-21.484375,-7.8125,-56.15234375
1755823275.430598,-38.57421875,-36.1328125,-13.18359375,-33.203125
1755823275.434301,-74.21875,-43.45703125,-13.18359375,-64.453125
1755823275.4380038,-77.63671875,-23.92578125,-20.99609375,-70.3125
1755823275.441707,-67.3828125,-7.32421875,-20.5078125,-44.921875
1755823275.4454095,-46.38671875,-17.08984375,-12.6953125,-23.92578125
1755823275.4491124,-45.41015625,-35.15625,-17.08984375,-30.76171875
1755823275.4528155,-83.984375,-34.66796875,-31.25,-56.640625
1755823275.4565184,-64.94140625,-23.4375,-23.4375,-44.921875
1755823275.4602213,-31.25,-16.11328125,-6.34765625,-34.1796875
1755823275.4639242,-43.9453125,-30.2734375,-6.8359375,-44.43359375
1755823275.467627,-77.1484375,-37.59765625,-13.18359375,-64.453125
1755823275.47133,-78.125,-14.6484375,-10.25390625,-67.3828125
1755823275.4762874,-43.9453125,-2.44140625,-18.06640625,-42.96875
1755823275.481245,-45.8984375,-15.625,-32.2265625,-37.59765625
1755823275.4862025,-80.56640625,-36.1328125,-23.4375,-64.453125
1755823275.49116,-76.66015625,-44.921875,-11.23046875,-73.2421875
1755823275.4961174,-48.33984375,-34.66796875,-14.16015625,-52.24609375
1755823275.5010748,-41.50390625,-24.90234375,-26.85546875,-40.52734375
1755823275.5060325,-63.4765625,-25.87890625,-18.06640625,-57.12890625
1755823275.51099,-88.37890625,-27.34375,-10.25390625,-77.63671875
1755823275.515947,-60.05859375,-29.296875,-7.32421875,-56.640625
1755823275.520905,-37.109375,-30.2734375,-7.32421875,-38.57421875
1755823275.5258625,-55.17578125,-28.3203125,-17.578125,-60.546875
1755823275.53082,-69.82421875,-28.80859375,-17.08984375,-73.2421875
1755823275.5345688,-49.31640625,-31.73828125,-15.13671875,-58.10546875
1755823275.538318,-41.9921875,-39.0625,-12.6953125,-38.0859375
1755823275.5420668,-48.828125,-44.43359375,-15.13671875,-54.19921875
1755823275.5458157,-73.73046875,-38.57421875,-24.90234375,-77.63671875
1755823275.5495648,-90.33203125,-36.1328125,-20.5078125,-62.5
1755823275.5533135,-64.453125,-44.921875,-13.671875,-34.1796875
1755823275.5570626,-60.05859375,-56.15234375,-15.625,-50.29296875
1755823275.5608118,-99.609375,-55.17578125,-21.97265625,-70.80078125
1755823275.564561,-109.375,-36.62109375,-21.97265625,-64.453125
1755823275.5683095,-68.84765625,-23.92578125,-15.13671875,-59.08203125
1755823275.572059,-60.546875,-23.4375,-4.39453125,-47.36328125
1755823275.5758076,-75.68359375,-28.3203125,-6.8359375,-54.19921875
1755823275.5784678,-81.0546875,-38.0859375,-20.01953125,-77.1484375
1755823275.581128,-55.6640625,-32.2265625,-15.13671875,-68.359375
1755823275.5837884,-49.8046875,-46.875,-2.9296875,-45.8984375
1755823275.586449,-74.70703125,-62.5,-1.953125,-51.7578125
1755823275.589109,-106.93359375,-41.9921875,-10.25390625,-74.21875
1755823275.5917692,-89.35546875,-29.78515625,-17.08984375,-56.640625
1755823275.5944295,-48.33984375,-26.85546875,-15.13671875,-27.34375
1755823275.59709,-57.12890625,-29.296875,-28.3203125,-47.36328125
1755823275.5997505,-93.75,-33.69140625,-37.59765625,-75.1953125
1755823275.6024106,-102.5390625,-32.71484375,-25.87890625,-67.87109375
1755823275.6050708,-75.68359375,-32.2265625,-9.765625,-34.66796875
1755823275.607731,-53.22265625,-37.59765625,1.46484375,-21.484375
1755823275.6124406,-70.80078125,-40.0390625,8.7890625,-62.98828125
1755823275.61715,-99.12109375,-22.94921875,0.48828125,-96.19140625
1755823275.6218596,-76.66015625,-13.18359375,-12.6953125,-66.89453125
1755823275.626569,-35.64453125,-29.78515625,-15.625,-51.7578125
1755823275.6312785,-62.01171875,-46.38671875,-30.2734375,-80.56640625
1755823275.635988,-113.76953125,-42.96875,-33.203125,-96.6796875
1755823275.6406977,-86.9140625,-24.90234375,-7.32421875,-73.2421875
1755823275.645407,-64.453125,-16.6015625,-5.37109375,-54.19921875
1755823275.6501164,-105.95703125,-25.87890625,-10.7421875,-83.984375
1755823275.654826,-125.9765625,-32.2265625,8.7890625,-109.86328125
1755823275.6595354,-94.7265625,-43.9453125,-16.6015625,-79.58984375
1755823275.664245,-72.75390625,-48.828125,-48.33984375,-45.41015625
1755823275.6679962,-77.1484375,-33.69140625,-16.11328125,-48.828125
1755823275.6717474,-88.37890625,-36.62109375,0.9765625,-77.1484375
1755823275.6754987,-83.984375,-36.62109375,-14.6484375,-81.54296875
1755823275.67925,-62.5,-29.296875,-16.6015625,-54.19921875
1755823275.6830013,-57.6171875,-30.2734375,0.0,-47.36328125
1755823275.6867528,-86.9140625,-16.6015625,14.6484375,-80.078125
1755823275.690504,-94.23828125,-11.71875,12.6953125,-71.77734375
1755823275.6942554,-79.58984375,-32.71484375,2.44140625,-37.109375
1755823275.6980066,-61.5234375,-30.2734375,1.46484375,-31.73828125
1755823275.701758,-62.01171875,-39.0625,-1.953125,-68.359375
1755823275.7055092,-92.7734375,-39.0625,-22.94921875,-94.7265625
1755823275.7092605,-90.33203125,-18.06640625,-25.87890625,-71.2890625
1755823275.7143707,-51.7578125,-19.53125,-11.23046875,-42.48046875
1755823275.719481,-53.7109375,-14.6484375,-11.23046875,-44.43359375
1755823275.7245913,-65.91796875,-25.390625,-23.92578125,-74.21875
