timestamps,eeg_1,eeg_2,eeg_3,eeg_4
1755831837.3169649,-6.34765625,316.40625,-135.7421875,-25.87890625
1755831837.3205338,9.765625,274.4140625,-180.17578125,-5.37109375
1755831837.3241024,37.109375,238.28125,-152.83203125,24.90234375
1755831837.327671,16.11328125,178.7109375,-156.25,14.6484375
1755831837.33124,-12.20703125,36.62109375,-296.875,-14.16015625
1755831837.3348086,6.8359375,20.01953125,-321.2890625,-6.34765625
1755831837.3383772,39.0625,-391.6015625,-591.796875,45.41015625
1755831837.341946,33.69140625,-229.98046875,-457.51953125,32.71484375
1755831837.3455148,0.48828125,484.375,65.4296875,-18.5546875
1755831837.3490834,-13.18359375,436.5234375,-5.859375,-19.04296875
1755831837.3526523,31.73828125,-307.12890625,-549.8046875,27.34375
1755831837.356221,44.921875,-229.4921875,-506.8359375,29.78515625
1755831837.362526,1.953125,488.76953125,27.34375,-8.30078125
1755831837.3688307,-21.97265625,314.453125,-58.10546875,-16.11328125
1755831837.3751357,-5.859375,145.01953125,-197.75390625,9.27734375
1755831837.3814406,21.484375,362.79296875,-58.59375,35.15625
1755831837.3877454,11.71875,491.2109375,55.6640625,19.53125
1755831837.3940504,-14.6484375,7.8125,-289.0625,-2.9296875
1755831837.400355,-12.6953125,-564.453125,-718.26171875,20.5078125
1755831837.40666,4.8828125,-67.87109375,-353.02734375,21.484375
1755831837.412965,2.44140625,562.01171875,111.81640625,-6.8359375
1755831837.41927,-17.08984375,40.52734375,-278.3203125,-13.18359375
1755831837.4255748,-12.20703125,-400.390625,-610.3515625,-8.30078125
1755831837.4318798,14.16015625,295.41015625,-85.9375,15.13671875
1755831837.43309,23.4375,474.12109375,48.828125,32.2265625
1755831837.4343,-9.765625,41.50390625,-272.4609375,6.34765625
1755831837.4355102,-33.203125,44.921875,-298.828125,-3.90625
1755831837.4367204,1.46484375,343.26171875,-87.890625,11.71875
1755831837.4379303,30.76171875,408.203125,24.90234375,27.34375
1755831837.4391406,3.90625,-4.8828125,-262.20703125,10.25390625
1755831837.4403508,-15.13671875,-229.4921875,-488.76953125,-20.99609375
1755831837.4415607,6.8359375,256.34765625,-157.2265625,-1.46484375
1755831837.442771,39.0625,423.33984375,25.87890625,29.78515625
1755831837.4439812,29.296875,-164.55078125,-401.3671875,30.2734375
1755831837.4451911,-19.53125,-206.54296875,-471.19140625,-5.37109375
1755831837.4464014,-13.671875,258.30078125,-138.671875,-9.765625
1755831837.4503195,33.69140625,153.80859375,-214.35546875,28.80859375
1755831837.454238,30.2734375,-110.3515625,-365.72265625,24.4140625
1755831837.458156,-12.6953125,128.90625,-196.77734375,-12.6953125
1755831837.4620745,-5.37109375,357.91015625,-76.171875,-4.39453125
1755831837.4659927,35.15625,223.6328125,-135.25390625,33.69140625
1755831837.4699109,41.50390625,-727.05078125,-789.55078125,51.7578125
1755831837.473829,-9.27734375,-641.6015625,-752.9296875,17.08984375
1755831837.4777474,-29.296875,236.328125,-141.11328125,-18.5546875
1755831837.4816656,9.765625,-14.6484375,-330.078125,10.7421875
1755831837.4855838,35.15625,55.17578125,-235.3515625,35.64453125
1755831837.4895022,20.01953125,479.00390625,78.125,5.37109375
1755831837.4934204,7.32421875,423.33984375,5.859375,-12.6953125
1755831837.4972816,19.53125,0.0,-284.1796875,18.5546875
1755831837.5011427,30.2734375,-41.50390625,-293.45703125,46.875
1755831837.505004,3.41796875,417.48046875,27.83203125,21.484375
1755831837.5088654,-31.73828125,361.81640625,-29.296875,-16.11328125
1755831837.5127263,-9.765625,-37.59765625,-327.63671875,3.90625
1755831837.5165875,42.96875,-187.98828125,-395.99609375,41.50390625
1755831837.520449,41.50390625,-61.03515625,-300.29296875,25.390625
1755831837.52431,-2.44140625,203.125,-130.37109375,-5.859375
1755831837.5281715,-6.34765625,-357.421875,-545.41015625,5.37109375
1755831837.5320327,12.6953125,-367.1875,-541.50390625,23.4375
1755831837.535894,30.2734375,496.09375,127.9296875,23.92578125
1755831837.539755,21.97265625,380.37109375,47.36328125,9.27734375
1755831837.5444748,0.0,108.88671875,-185.546875,-4.39453125
1755831837.5491943,17.578125,236.328125,-135.7421875,16.11328125
1755831837.553914,46.38671875,463.37890625,73.73046875,36.1328125
1755831837.5586338,26.3671875,148.4375,-112.3046875,24.90234375
1755831837.5633533,5.859375,-247.55859375,-463.37890625,7.8125
1755831837.568073,23.4375,-86.42578125,-351.07421875,11.71875
1755831837.5727928,35.64453125,158.203125,-137.6953125,36.1328125
1755831837.5775125,32.71484375,63.4765625,-201.66015625,42.96875
1755831837.582232,4.39453125,-778.3203125,-846.19140625,21.484375
1755831837.5869515,-8.7890625,-243.1640625,-490.234375,-6.34765625
1755831837.5916712,34.1796875,553.22265625,138.18359375,16.6015625
1755831837.596391,43.45703125,152.34375,-154.296875,22.94921875
1755831837.6014304,2.44140625,119.140625,-179.6875,-8.30078125
1755831837.6064696,-0.48828125,388.671875,11.23046875,-8.30078125
1755831837.611509,37.59765625,333.49609375,-47.36328125,31.25
1755831837.6165483,42.96875,236.81640625,-83.984375,36.1328125
1755831837.621588,-2.44140625,184.08203125,-135.7421875,0.9765625
1755831837.6266274,-41.50390625,-28.3203125,-292.96875,-24.4140625
1755831837.631667,-18.06640625,72.265625,-181.15234375,-15.13671875
1755831837.636706,27.34375,-425.78125,-537.109375,28.80859375
1755831837.6417456,-2.44140625,-483.88671875,-598.14453125,3.41796875
1755831837.6467848,-43.45703125,413.0859375,27.34375,-49.8046875
1755831837.6518242,-5.37109375,358.3984375,-2.44140625,-21.484375
1755831837.6568637,32.71484375,-206.0546875,-396.97265625,39.0625
1755831837.6583602,7.32421875,-36.1328125,-297.36328125,21.484375
1755831837.6598568,-15.625,463.8671875,55.17578125,-25.87890625
1755831837.661353,-3.90625,173.828125,-161.62109375,-14.16015625
1755831837.66285,16.6015625,64.453125,-200.1953125,17.08984375
1755831837.6643465,20.5078125,403.80859375,70.3125,21.97265625
1755831837.665843,-1.953125,210.44921875,-81.54296875,2.44140625
1755831837.6673396,1.953125,-268.5546875,-446.2890625,-6.8359375
1755831837.668836,28.3203125,-80.078125,-324.70703125,14.6484375
1755831837.670333,31.25,464.35546875,99.12109375,26.3671875
1755831837.6718292,12.6953125,332.51953125,20.01953125,5.37109375
1755831837.6733258,-8.7890625,-296.875,-477.05078125,-4.8828125
1755831837.6748223,1.46484375,-277.83203125,-493.65234375,10.7421875
1755831837.6795382,24.4140625,407.71484375,9.27734375,23.92578125
1755831837.6842542,18.5546875,531.25,130.859375,9.27734375
1755831837.68897,4.39453125,-160.64453125,-378.41796875,5.859375
1755831837.693686,2.9296875,-216.30859375,-456.54296875,11.23046875
1755831837.698402,20.5078125,368.65234375,-2.9296875,15.625
1755831837.7031178,17.578125,200.1953125,-91.796875,23.4375
1755831837.7078335,0.0,-508.7890625,-618.1640625,0.0
1755831837.7125494,-6.34765625,-743.65234375,-843.26171875,-16.6015625
1755831837.7172654,-2.9296875,238.28125,-131.8359375,-6.34765625
1755831837.7219813,27.83203125,478.02734375,93.75,15.625
1755831837.7266972,-2.9296875,145.01953125,-174.8046875,-0.9765625
1755831837.7314131,-32.2265625,229.98046875,-130.37109375,-19.04296875
1755831837.7354524,13.671875,313.96484375,-28.80859375,8.7890625
1755831837.7394917,45.8984375,159.1796875,-130.37109375,41.015625
1755831837.743531,11.23046875,-75.68359375,-319.3359375,18.5546875
1755831837.7475705,-23.4375,112.79296875,-224.12109375,1.46484375
1755831837.7516096,-0.48828125,367.67578125,-6.8359375,10.7421875
1755831837.755649,35.15625,-145.5078125,-352.05078125,33.69140625
1755831837.7596884,7.8125,-528.3203125,-663.0859375,23.92578125
1755831837.7637277,-44.921875,105.95703125,-241.69921875,-26.3671875
1755831837.767767,-26.3671875,406.73828125,-28.80859375,-24.90234375
1755831837.7718062,19.53125,99.609375,-196.2890625,25.87890625
1755831837.7758455,21.97265625,137.6953125,-146.97265625,26.85546875
1755831837.7798848,-4.39453125,513.671875,107.91015625,-22.4609375
1755831837.7834537,-21.484375,416.9921875,15.13671875,-20.5078125
1755831837.787022,14.6484375,18.06640625,-283.69140625,33.203125
1755831837.7905903,34.66796875,44.921875,-216.30859375,53.22265625
1755831837.794159,3.41796875,157.71484375,-121.09375,9.765625
1755831837.7977276,-2.9296875,167.48046875,-153.80859375,-17.578125
1755831837.801296,34.1796875,-126.46484375,-362.3046875,21.97265625
1755831837.8048644,50.29296875,-167.96875,-385.25390625,41.9921875
1755831837.808433,23.92578125,263.18359375,-74.70703125,12.20703125
1755831837.8120017,-12.20703125,369.62890625,-6.8359375,-11.23046875
1755831837.81557,5.37109375,-451.66015625,-604.4921875,25.87890625
1755831837.8191383,33.69140625,-625.48828125,-733.88671875,50.29296875
1755831837.8227072,5.37109375,387.20703125,0.48828125,24.90234375
1755831837.8264894,-20.5078125,238.76953125,-100.5859375,0.48828125
1755831837.8302715,-10.7421875,20.01953125,-287.109375,-0.48828125
1755831837.834054,24.90234375,323.73046875,-84.47265625,31.73828125
1755831837.8378365,26.85546875,515.625,86.42578125,39.0625
1755831837.8416183,3.90625,318.84765625,-20.01953125,-0.48828125
1755831837.8454008,2.9296875,-141.11328125,-357.91015625,-9.765625
1755831837.849183,34.66796875,-221.6796875,-433.10546875,18.06640625
1755831837.8529656,37.59765625,166.015625,-125.9765625,33.69140625
1755831837.856748,5.859375,20.99609375,-233.88671875,16.6015625
1755831837.86053,-1.46484375,-779.296875,-855.95703125,-14.6484375
1755831837.8643124,11.71875,-226.07421875,-446.77734375,-2.9296875
1755831837.8680947,40.0390625,442.87109375,80.078125,41.50390625
1755831837.8730557,30.76171875,205.56640625,-101.5625,32.71484375
1755831837.8780165,-9.27734375,155.2734375,-186.5234375,-1.953125
1755831837.8829775,-8.30078125,373.53515625,-38.57421875,5.37109375
1755831837.8879385,23.92578125,336.42578125,-19.53125,40.0390625
1755831837.8928993,26.3671875,195.80078125,-93.26171875,41.50390625
1755831837.8978603,-16.6015625,-27.34375,-252.44140625,11.23046875
1755831837.9028213,-24.4140625,59.5703125,-220.21484375,0.9765625
1755831837.907782,28.3203125,374.51171875,-10.25390625,35.64453125
1755831837.912743,60.05859375,-280.2734375,-458.49609375,65.4296875
1755831837.917704,18.5546875,-497.0703125,-634.765625,11.71875
1755831837.9226649,-18.06640625,330.078125,-63.96484375,-26.3671875
1755831837.927626,25.390625,368.65234375,-20.5078125,19.04296875
1755831837.930193,59.08203125,-27.83203125,-278.80859375,51.7578125
1755831837.9327598,17.578125,201.171875,-99.12109375,23.4375
1755831837.9353266,-2.9296875,504.39453125,90.8203125,-13.18359375
1755831837.9378936,29.78515625,267.08984375,-84.9609375,6.8359375
1755831837.9404607,48.828125,172.8515625,-115.72265625,50.29296875
1755831837.9430275,35.15625,167.48046875,-112.79296875,33.203125
1755831837.9455943,5.859375,51.26953125,-211.42578125,-12.20703125
1755831837.9481614,4.39453125,-196.77734375,-405.76171875,0.48828125
1755831837.9507284,35.64453125,-200.68359375,-406.25,41.50390625
1755831837.9532952,29.78515625,304.6875,-55.6640625,42.96875
1755831837.955862,-13.671875,516.11328125,77.1484375,-6.34765625
1755831837.958429,-1.953125,-52.734375,-321.77734375,-3.41796875
1755831837.962232,42.96875,-502.44140625,-653.80859375,44.921875
1755831837.966035,41.50390625,342.28515625,-31.73828125,32.2265625
1755831837.9698377,9.765625,525.87890625,106.4453125,6.8359375
1755831837.973641,-10.7421875,130.859375,-192.87109375,11.23046875
1755831837.9774437,28.3203125,166.50390625,-143.5546875,40.0390625
1755831837.9812465,69.82421875,161.62109375,-117.1875,49.8046875
1755831837.9850492,40.52734375,106.93359375,-160.64453125,27.83203125
1755831837.9888525,8.30078125,-399.90234375,-561.03515625,22.4609375
1755831837.9926553,9.765625,-423.828125,-607.421875,33.203125
1755831837.996458,30.2734375,449.70703125,55.17578125,32.71484375
1755831838.0002608,34.66796875,407.2265625,37.59765625,24.4140625
1755831838.0040638,7.32421875,110.83984375,-217.7734375,9.27734375
1755831838.007758,2.44140625,217.7734375,-191.40625,0.48828125
1755831838.0114522,31.73828125,490.234375,25.87890625,20.01953125
1755831838.0151465,36.1328125,291.015625,-51.7578125,28.80859375
1755831838.0188403,0.0,-25.390625,-299.31640625,-5.859375
1755831838.0225344,-8.30078125,162.59765625,-210.44921875,-12.20703125
1755831838.0262284,29.296875,184.5703125,-139.6484375,26.3671875
1755831838.0299227,46.875,-156.73828125,-344.23828125,57.6171875
1755831838.0336168,4.39453125,-679.6875,-765.13671875,33.203125
1755831838.0373108,-28.80859375,-124.51171875,-407.71484375,-20.5078125
1755831838.0410051,5.37109375,559.5703125,109.375,-0.48828125
1755831838.0446992,39.55078125,203.61328125,-99.12109375,34.1796875
1755831838.0483932,19.04296875,95.21484375,-179.19921875,12.6953125
1755831838.0521502,-18.5546875,500.0,96.6796875,-27.34375
1755831838.0559075,2.9296875,489.2578125,75.1953125,-7.8125
1755831838.0596645,53.22265625,235.83984375,-101.5625,39.0625
1755831838.0634215,36.62109375,321.77734375,-22.94921875,33.69140625
1755831838.0671787,1.953125,367.1875,-6.34765625,1.953125
1755831838.0709355,4.39453125,185.05859375,-135.7421875,6.34765625
1755831838.074693,49.31640625,-428.7109375,-583.0078125,49.8046875
1755831838.07845,47.8515625,-579.1015625,-696.2890625,40.52734375
1755831838.0822072,-11.23046875,392.08984375,5.859375,-19.53125
1755831838.0859642,-13.671875,419.43359375,7.8125,-23.92578125
1755831838.0897214,25.87890625,-33.203125,-324.70703125,20.5078125
1755831838.0934784,45.41015625,249.51171875,-100.09765625,39.0625
1755831838.1007917,11.71875,564.94140625,132.8125,6.34765625
1755831838.108105,-6.8359375,229.98046875,-157.2265625,-17.578125
1755831838.1154184,13.671875,37.59765625,-274.4140625,17.08984375
1755831838.1227317,36.62109375,356.4453125,0.9765625,34.1796875
1755831838.130045,29.78515625,451.66015625,45.8984375,11.23046875
1755831838.1373582,4.39453125,-47.36328125,-309.5703125,0.9765625
1755831838.1446714,8.7890625,-582.03125,-719.23828125,0.9765625
1755831838.1519847,24.4140625,60.546875,-263.671875,3.90625
1755831838.159298,16.6015625,494.140625,125.9765625,5.37109375
1755831838.1666114,-16.11328125,-53.22265625,-265.13671875,-9.27734375
1755831838.1739247,-20.5078125,-122.0703125,-391.6015625,-10.7421875
1755831838.181238,10.7421875,333.0078125,-77.1484375,15.13671875
1755831838.1827254,31.25,469.7265625,58.10546875,18.5546875
1755831838.184213,3.90625,-45.41015625,-307.6171875,4.8828125
1755831838.1857004,-14.6484375,-216.796875,-488.28125,-1.46484375
1755831838.1871877,12.20703125,289.0625,-138.671875,9.27734375
1755831838.1886752,41.50390625,398.92578125,-5.859375,33.69140625
1755831838.190163,23.92578125,-28.3203125,-301.7578125,20.5078125
1755831838.1916502,-6.34765625,-140.625,-414.55078125,-11.23046875
1755831838.1931376,18.5546875,269.53125,-138.671875,10.25390625
1755831838.194625,55.17578125,372.55859375,-13.18359375,39.0625
1755831838.1961124,38.0859375,102.05078125,-201.171875,26.85546875
1755831838.1976,-5.859375,207.51953125,-151.3671875,0.9765625
1755831838.1990874,0.9765625,356.93359375,-12.6953125,7.32421875
1755831838.2027843,32.71484375,146.484375,-138.18359375,51.26953125
1755831838.2064817,31.73828125,-268.06640625,-457.51953125,59.08203125
1755831838.2101784,-1.953125,-71.2890625,-361.328125,17.578125
1755831838.2138753,-3.90625,430.6640625,-8.30078125,-8.7890625
1755831838.2175722,37.59765625,134.765625,-190.4296875,29.296875
1755831838.2212691,50.29296875,-401.85546875,-553.7109375,60.546875
1755831838.2249663,-0.9765625,-122.55859375,-377.9296875,7.32421875
1755831838.2286632,-27.83203125,426.26953125,-31.25,-26.3671875
1755831838.23236,14.6484375,60.546875,-283.203125,18.5546875
1755831838.2360573,41.015625,-531.25,-679.19921875,56.15234375
1755831838.2397542,-1.953125,62.98828125,-260.25390625,-0.9765625
1755831838.243451,-33.69140625,401.85546875,-39.55078125,-23.92578125
1755831838.247183,-6.34765625,88.37890625,-265.13671875,2.9296875
1755831838.2509153,20.5078125,177.734375,-171.875,22.94921875
1755831838.2546473,11.23046875,305.17578125,-36.62109375,25.87890625
1755831838.2583797,-14.6484375,189.453125,-151.85546875,-12.20703125
1755831838.2621114,-13.18359375,-89.84375,-394.53125,-15.625
1755831838.2658434,23.92578125,-301.7578125,-518.5546875,26.3671875
1755831838.2695756,27.83203125,61.5234375,-229.98046875,24.4140625
1755831838.2733076,-2.9296875,432.12890625,29.78515625,-8.30078125
1755831838.2770398,-4.39453125,-255.37109375,-499.0234375,-1.46484375
1755831838.2807715,14.16015625,-324.21875,-567.87109375,16.11328125
1755831838.284504,34.1796875,510.7421875,57.6171875,33.203125
1755831838.288236,19.04296875,308.59375,-62.98828125,22.4609375
1755831838.2943196,-9.27734375,33.69140625,-319.82421875,-7.8125
1755831838.300403,7.8125,238.28125,-210.9375,12.6953125
1755831838.3064868,37.59765625,479.00390625,8.30078125,46.38671875
1755831838.3125706,36.1328125,309.5703125,-95.703125,37.109375
1755831838.318654,-4.8828125,-17.08984375,-351.07421875,3.90625
1755831838.3247378,-1.46484375,-60.546875,-391.6015625,13.18359375
1755831838.3308215,47.36328125,7.32421875,-312.01171875,41.015625
1755831838.336905,40.52734375,-45.41015625,-303.7109375,38.57421875
1755831838.3429887,7.32421875,-670.41015625,-795.8984375,18.5546875
1755831838.3490725,-0.9765625,-231.4453125,-518.5546875,-9.765625
1755831838.355156,29.296875,595.703125,127.9296875,19.53125
1755831838.3612397,36.62109375,290.0390625,-104.4921875,34.66796875
1755831838.362785,0.0,193.359375,-205.56640625,10.25390625
1755831838.364331,-19.53125,462.40234375,-36.1328125,-13.671875
1755831838.365877,20.5078125,438.4765625,-31.25,4.39453125
1755831838.367422,46.875,189.94140625,-180.17578125,34.1796875
1755831838.3689678,19.53125,166.015625,-228.515625,12.20703125
1755831838.3705134,-4.8828125,162.109375,-216.796875,-16.11328125
1755831838.372059,25.87890625,44.43359375,-275.87890625,8.7890625
1755831838.3736048,51.26953125,-0.48828125,-304.6875,49.31640625
1755831838.3751502,13.671875,52.24609375,-245.1171875,25.87890625
1755831838.376696,-17.08984375,274.4140625,-129.39453125,-20.01953125
1755831838.3782415,3.41796875,303.7109375,-142.08984375,-2.9296875
1755831838.3797872,40.52734375,-260.25390625,-528.80859375,33.203125
1755831838.3834174,27.83203125,-105.95703125,-401.85546875,0.9765625
1755831838.3870475,-4.39453125,514.16015625,39.55078125,-26.3671875
1755831838.390678,10.7421875,204.58984375,-207.03125,-17.08984375
1755831838.394308,41.50390625,-230.95703125,-517.08984375,22.94921875
1755831838.3979385,43.9453125,172.8515625,-207.03125,21.97265625
1755831838.4015684,16.11328125,227.05078125,-134.27734375,-4.8828125
1755831838.4051986,-13.671875,-162.59765625,-438.4765625,-16.11328125
1755831838.4088287,7.32421875,-758.30078125,-882.8125,15.625
1755831838.412459,28.3203125,-249.0234375,-501.953125,32.2265625
1755831838.4160893,-6.34765625,465.8203125,-3.90625,-8.30078125
1755831838.4197197,-27.34375,78.125,-303.7109375,-24.90234375
1755831838.4233496,9.765625,-90.8203125,-401.85546875,0.9765625
1755831838.42847,30.76171875,258.30078125,-129.39453125,16.11328125
1755831838.433591,2.9296875,536.1328125,60.05859375,8.30078125
1755831838.4387112,-23.92578125,4.8828125,-313.4765625,-9.765625
1755831838.4438317,-15.625,-105.95703125,-385.7421875,-19.53125
1755831838.4489522,14.16015625,378.90625,-36.62109375,17.08984375
1755831838.454073,20.5078125,351.5625,-11.23046875,25.390625
1755831838.4591937,-1.953125,-369.62890625,-525.390625,0.0
1755831838.464314,-12.6953125,-504.8828125,-715.8203125,-8.30078125
1755831838.4694345,7.32421875,310.546875,-127.44140625,4.39453125
1755831838.474555,32.71484375,426.26953125,23.92578125,27.34375
1755831838.4796755,12.6953125,264.16015625,-103.515625,15.13671875
1755831838.484796,-25.87890625,320.3125,-99.609375,-12.20703125
1755831838.4896092,1.46484375,450.68359375,-12.6953125,1.953125
1755831838.494423,44.43359375,350.09765625,-23.4375,29.296875
1755831838.499236,5.859375,115.234375,-154.78515625,11.71875
1755831838.504049,-36.1328125,225.09765625,-143.06640625,-33.69140625
1755831838.5088625,0.9765625,496.58203125,63.4765625,-18.06640625
1755831838.5136757,43.45703125,111.328125,-145.01953125,49.8046875
1755831838.518489,27.34375,-235.83984375,-403.3203125,48.33984375
1755831838.5233023,-10.25390625,137.6953125,-197.265625,-8.30078125
1755831838.5281155,-13.18359375,444.82421875,2.44140625,-17.08984375
1755831838.5329287,29.296875,83.49609375,-223.6328125,33.203125
1755831838.537742,38.57421875,-666.9921875,-745.1171875,42.48046875
1755831838.542555,-12.20703125,-101.07421875,-336.42578125,-8.7890625
1755831838.5451736,-25.390625,418.9453125,4.8828125,-17.08984375
1755831838.5477915,9.27734375,131.8359375,-207.51953125,20.01953125
1755831838.55041,34.1796875,226.5625,-107.421875,37.59765625
1755831838.5530283,13.18359375,499.0234375,89.84375,13.18359375
1755831838.5556464,-9.27734375,340.8203125,-42.96875,-14.16015625
1755831838.5582647,5.37109375,15.13671875,-270.01953125,0.48828125
1755831838.560883,29.78515625,-162.59765625,-366.69921875,21.484375
1755831838.5635011,7.8125,65.91796875,-209.47265625,-5.37109375
1755831838.5661194,-19.04296875,246.09375,-112.3046875,-26.85546875
1755831838.5687375,0.0,28.3203125,-263.671875,-2.44140625
1755831838.5713558,24.4140625,136.71875,-195.3125,33.203125
1755831838.573974,20.01953125,425.78125,12.6953125,18.5546875
1755831838.5776994,-5.859375,372.0703125,-15.625,-14.16015625
1755831838.581425,9.765625,-479.98046875,-638.671875,4.8828125
1755831838.5851502,39.55078125,-445.80078125,-609.375,33.203125
1755831838.5888758,34.1796875,472.65625,78.125,33.69140625
1755831838.592601,10.7421875,190.4296875,-133.7890625,12.6953125
1755831838.5963264,-6.8359375,-409.66796875,-589.35546875,0.48828125
1755831838.600052,2.9296875,-49.31640625,-328.125,20.99609375
1755831838.6037772,22.4609375,451.66015625,73.2421875,44.43359375
1755831838.6075027,18.06640625,118.65234375,-134.27734375,11.71875
1755831838.611228,-1.953125,-838.37890625,-871.58203125,-13.18359375
1755831838.6149535,0.48828125,-402.83203125,-610.3515625,-0.48828125
1755831838.6186788,22.94921875,534.1796875,104.00390625,6.34765625
1755831838.622409,12.20703125,375.0,29.78515625,3.41796875
1755831838.62614,-13.671875,284.1796875,-93.26171875,-11.23046875
1755831838.6298704,-0.9765625,378.90625,-75.1953125,3.41796875
1755831838.6336012,23.92578125,396.97265625,-32.2265625,41.50390625
1755831838.6373315,22.4609375,299.31640625,-47.8515625,50.29296875
1755831838.6410625,-13.18359375,81.0546875,-193.84765625,18.5546875
1755831838.6447928,-15.625,-0.48828125,-284.1796875,5.37109375
1755831838.648523,20.01953125,310.546875,-63.4765625,24.90234375
1755831838.652254,40.0390625,-297.36328125,-488.28125,52.24609375
1755831838.6559846,-2.44140625,-527.34375,-665.0390625,17.08984375
1755831838.6597152,-27.83203125,368.65234375,-12.6953125,-36.1328125
1755831838.6634457,14.6484375,201.171875,-123.046875,3.90625
1755831838.6673107,34.66796875,-70.3125,-318.359375,30.2734375
1755831838.6711757,-1.46484375,221.6796875,-145.99609375,-8.7890625
1755831838.6750405,-29.78515625,435.546875,-2.44140625,-37.59765625
1755831838.6789052,-3.41796875,260.25390625,-78.61328125,3.41796875
1755831838.6827705,32.71484375,226.07421875,-88.37890625,39.55078125
1755831838.686635,37.59765625,174.31640625,-113.76953125,24.4140625
1755831838.6905,-5.37109375,230.46875,-91.30859375,-9.27734375
1755831838.694365,-0.9765625,81.0546875,-229.4921875,8.30078125
1755831838.6982298,39.0625,-397.4609375,-567.3828125,53.7109375
1755831838.7020948,18.5546875,198.73046875,-153.80859375,38.57421875
1755831838.7059596,-11.71875,499.51171875,67.87109375,17.08984375
1755831838.7098246,-20.99609375,127.44140625,-193.359375,9.27734375
1755831838.7135766,-3.90625,213.37890625,-137.6953125,14.6484375
1755831838.7173283,22.94921875,422.8515625,57.12890625,39.55078125
1755831838.7210803,4.39453125,128.90625,-150.390625,24.4140625
1755831838.7248323,-20.01953125,-49.8046875,-340.8203125,-14.6484375
1755831838.7285843,4.39453125,253.41796875,-135.7421875,4.8828125
1755831838.7323363,34.1796875,152.83203125,-154.296875,45.8984375
1755831838.7360888,17.08984375,38.0859375,-236.81640625,19.04296875
1755831838.7398407,-13.18359375,-472.16796875,-629.8828125,-9.27734375
1755831838.7435927,-15.625,-702.63671875,-808.10546875,3.90625
1755831838.7473447,11.71875,363.28125,-57.6171875,12.20703125
1755831838.7510967,27.83203125,521.97265625,80.56640625,3.90625
1755831838.7548487,-4.8828125,158.203125,-195.3125,-15.13671875
1755831838.759614,-14.16015625,353.02734375,-88.8671875,0.9765625
1755831838.7643793,14.16015625,606.4453125,104.00390625,22.4609375
1755831838.7691443,32.71484375,438.96484375,38.0859375,30.2734375
1755831838.7739096,6.34765625,267.08984375,-79.1015625,1.953125
1755831838.7786748,-6.8359375,234.375,-138.18359375,-9.765625
1755831838.78344,30.2734375,99.12109375,-224.609375,27.83203125
1755831838.7882054,56.640625,-18.06640625,-262.20703125,47.8515625
1755831838.792971,39.0625,-712.890625,-785.64453125,40.0390625
1755831838.7977357,-5.37109375,-406.73828125,-632.32421875,9.27734375
1755831838.802501,8.7890625,405.76171875,-42.96875,12.20703125
1755831838.8072662,46.875,243.65234375,-138.18359375,31.73828125
1755831838.8120315,27.83203125,298.33984375,-99.609375,20.5078125
1755831838.8156936,-15.13671875,519.53125,20.01953125,-11.23046875
1755831838.819356,-2.44140625,416.015625,-45.8984375,4.39453125
1755831838.823018,43.9453125,235.3515625,-114.74609375,41.9921875
1755831838.8266802,43.9453125,379.8828125,3.41796875,31.73828125
1755831838.8303423,6.34765625,449.70703125,25.87890625,8.7890625
1755831838.8340044,-8.7890625,149.90234375,-190.91796875,13.18359375
1755831838.8376667,39.0625,-402.34375,-592.28515625,33.203125
1755831838.8413289,55.6640625,-384.27734375,-562.01171875,41.015625
1755831838.844991,17.578125,214.35546875,-141.6015625,4.8828125
1755831838.8486533,3.41796875,361.328125,-100.09765625,-21.484375
1755831838.8523154,29.78515625,-352.05078125,-616.2109375,21.97265625
1755831838.8559775,36.62109375,-301.7578125,-549.31640625,41.50390625
1755831838.8599305,8.30078125,503.90625,44.921875,11.71875
1755831838.8638828,-9.765625,243.1640625,-176.7578125,-19.53125
1755831838.8678355,-5.37109375,85.44921875,-276.85546875,-4.8828125
1755831838.8717885,21.97265625,479.00390625,40.52734375,34.1796875
1755831838.8757408,19.04296875,593.75,148.4375,10.7421875
1755831838.8796935,-2.9296875,28.3203125,-248.53515625,-0.48828125
1755831838.8836462,7.32421875,-396.484375,-574.70703125,7.8125
1755831838.8875988,32.2265625,274.4140625,-89.35546875,5.859375
1755831838.8915515,25.390625,653.3203125,194.3359375,24.4140625
1755831838.8955042,-3.41796875,170.8984375,-167.96875,14.6484375
1755831838.8994567,-3.41796875,-52.734375,-308.10546875,8.30078125
1755831838.9034095,33.69140625,313.4765625,-20.01953125,16.11328125
1755831838.9071033,52.24609375,612.3046875,191.40625,22.4609375
1755831838.910797,27.34375,124.0234375,-173.828125,21.484375
1755831838.914491,4.39453125,-88.8671875,-363.28125,8.7890625
1755831838.9181848,37.109375,417.96875,-1.953125,22.94921875
1755831838.9218786,60.546875,524.4140625,99.609375,45.8984375
1755831838.9255724,11.71875,65.91796875,-229.4921875,32.2265625
1755831838.929266,-20.5078125,-248.046875,-501.953125,-3.41796875
1755831838.9329598,2.44140625,173.828125,-188.96484375,2.9296875
1755831838.9366536,37.59765625,513.18359375,93.75,37.109375
1755831838.9403474,48.828125,-131.34765625,-367.67578125,30.76171875
1755831838.9440413,10.25390625,-264.16015625,-522.4609375,-7.8125
1755831838.947735,-7.32421875,439.94140625,-43.45703125,-15.13671875
1755831838.9529097,30.76171875,432.6171875,11.71875,20.99609375
1755831838.9580836,32.71484375,173.828125,-111.328125,39.55078125
1755831838.9632578,-5.859375,235.3515625,-94.23828125,-4.39453125
1755831838.9684322,-18.06640625,545.8984375,67.87109375,-30.76171875
1755831838.9736066,18.5546875,310.05859375,-97.65625,9.765625
1755831838.9787807,42.48046875,-294.921875,-490.72265625,38.0859375
1755831838.983955,8.7890625,-20.5078125,-288.57421875,1.953125
1755831838.9891293,-11.23046875,548.33984375,66.89453125,-19.04296875
1755831838.9943037,22.4609375,186.5234375,-178.22265625,22.4609375
1755831838.999478,43.45703125,-162.59765625,-392.08984375,56.15234375
1755831839.004652,21.97265625,384.765625,0.9765625,25.87890625
1755831839.0098264,-27.34375,493.65234375,48.33984375,-13.18359375
1755831839.0121932,-32.71484375,47.36328125,-303.22265625,0.48828125
1755831839.01456,10.25390625,115.72265625,-221.6796875,20.5078125
1755831839.0169268,2.9296875,553.7109375,94.7265625,6.34765625
1755831839.0192938,-31.25,443.359375,15.13671875,-14.16015625
1755831839.0216606,-19.04296875,109.86328125,-216.30859375,-6.8359375
1755831839.024027,14.6484375,-4.8828125,-284.66796875,20.01953125
1755831839.026394,20.99609375,144.53125,-166.50390625,25.390625
1755831839.028761,-6.8359375,314.94140625,-66.89453125,5.37109375
1755831839.031128,-25.390625,81.54296875,-260.7421875,-5.37109375
1755831839.0334947,1.953125,224.12109375,-155.76171875,17.578125
1755831839.0358615,24.90234375,589.84375,120.60546875,32.2265625
1755831839.0382285,-2.9296875,512.6953125,59.5703125,10.7421875
1755831839.0419953,-18.06640625,-465.33203125,-638.18359375,2.44140625
1755831839.0457623,-3.41796875,-630.37109375,-750.0,21.97265625
1755831839.0495293,18.06640625,443.84765625,15.13671875,35.64453125
1755831839.0532963,18.5546875,339.84375,-48.828125,16.11328125
1755831839.057063,-16.6015625,89.84375,-236.328125,-21.97265625
1755831839.0608304,-3.90625,111.328125,-230.46875,1.46484375
1755831839.0645974,33.69140625,239.74609375,-86.42578125,22.4609375
1755831839.0683644,27.34375,220.703125,-57.12890625,10.7421875
1755831839.0721314,6.8359375,-689.453125,-772.94921875,12.20703125
1755831839.0758984,-14.6484375,-313.96484375,-595.703125,-15.13671875
1755831839.0796654,18.5546875,572.75390625,47.36328125,14.16015625
1755831839.0834324,40.0390625,357.421875,-54.6875,35.15625
1755831839.0871446,-6.8359375,267.08984375,-129.8828125,-12.20703125
1755831839.0908568,-22.94921875,444.3359375,-44.921875,-22.4609375
1755831839.094569,11.71875,500.0,-1.46484375,18.5546875
1755831839.0982811,38.57421875,360.83984375,-64.94140625,40.52734375
1755831839.101993,25.87890625,359.86328125,-47.36328125,18.06640625
1755831839.1057055,-4.39453125,222.16796875,-155.2734375,-5.859375
1755831839.109418,8.30078125,172.8515625,-186.5234375,0.48828125
1755831839.11313,52.24609375,-235.83984375,-459.47265625,52.24609375
1755831839.1168425,32.2265625,-314.94140625,-562.98828125,42.96875
1755831839.1205544,-12.20703125,430.17578125,-49.31640625,-6.34765625
1755831839.1242666,-1.953125,222.16796875,-168.45703125,19.53125
1755831839.1279788,45.8984375,-92.28515625,-381.34765625,52.734375
1755831839.1317697,41.015625,250.0,-149.90234375,35.64453125
1755831839.1355605,-8.7890625,533.69140625,25.390625,-4.39453125
1755831839.1393514,2.9296875,342.28515625,-85.9375,-2.9296875
1755831839.1431422,35.64453125,187.98828125,-184.08203125,36.1328125
1755831839.146933,37.59765625,468.75,14.6484375,37.109375
1755831839.150724,6.8359375,380.859375,-6.34765625,13.18359375
1755831839.1545146,-19.04296875,-76.66015625,-342.28515625,6.8359375
1755831839.1583054,7.32421875,-320.3125,-527.34375,20.99609375
1755831839.1620965,39.0625,312.5,-70.3125,33.69140625
1755831839.165887,26.85546875,683.10546875,170.8984375,16.11328125
1755831839.169678,-10.7421875,261.23046875,-144.04296875,-23.4375
1755831839.1734688,-2.44140625,175.78125,-232.91015625,-6.8359375
1755831839.1795466,43.45703125,473.6328125,8.7890625,39.55078125
1755831839.1856246,35.64453125,409.1796875,37.109375,32.2265625
1755831839.1917024,-6.8359375,-66.40625,-332.51953125,-6.34765625
1755831839.19778,0.0,-47.36328125,-390.625,-3.41796875
1755831839.203858,35.15625,443.84765625,-23.92578125,34.1796875
1755831839.2099357,43.9453125,374.0234375,-5.37109375,48.828125
1755831839.2160137,12.20703125,-367.67578125,-548.828125,13.18359375
1755831839.2220914,-6.34765625,-439.94140625,-676.7578125,-19.53125
1755831839.2281692,17.578125,375.0,-114.2578125,10.7421875
1755831839.2342472,33.203125,396.484375,-47.36328125,43.45703125
1755831839.240325,-8.30078125,250.48828125,-98.6328125,31.73828125
1755831839.2464027,-35.15625,366.69921875,-56.640625,5.859375
1755831839.2490025,-3.41796875,520.5078125,23.92578125,2.44140625
1755831839.2516024,48.33984375,418.9453125,12.20703125,44.43359375
1755831839.2542024,27.83203125,103.515625,-198.2421875,35.15625
1755831839.256802,-19.04296875,295.8984375,-68.84765625,-23.92578125
1755831839.2594018,-4.39453125,262.6953125,-89.35546875,5.37109375
1755831839.2620018,38.0859375,-163.0859375,-388.18359375,63.96484375
1755831839.2646017,35.64453125,-139.16015625,-366.69921875,39.55078125
1755831839.2672014,-12.20703125,341.796875,-65.4296875,-14.16015625
1755831839.2698011,-10.25390625,533.203125,71.77734375,-17.08984375
1755831839.272401,41.50390625,257.8125,-72.75390625,37.59765625
1755831839.275001,56.15234375,-525.390625,-650.390625,63.4765625
1755831839.2776008,-2.44140625,-21.97265625,-333.984375,10.25390625
1755831839.281424,-20.01953125,624.51171875,141.11328125,-3.41796875
1755831839.2852476,27.34375,231.4453125,-124.51171875,36.1328125
1755831839.289071,38.0859375,248.53515625,-115.234375,38.0859375
1755831839.2928944,11.71875,549.31640625,98.6328125,16.6015625
1755831839.2967176,-17.578125,523.4375,73.2421875,-4.39453125
1755831839.3005412,-7.8125,61.03515625,-277.34375,-1.953125
1755831839.3043647,16.6015625,-25.390625,-304.19921875,7.8125
1755831839.308188,6.34765625,255.859375,-75.68359375,-4.8828125
1755831839.3120112,-24.90234375,427.24609375,8.7890625,-19.04296875
1755831839.3158348,-11.23046875,-290.0390625,-532.2265625,23.4375
1755831839.3196585,17.578125,-521.97265625,-699.21875,43.9453125
1755831839.3234816,1.46484375,529.296875,94.7265625,12.20703125
1755831839.3272238,-23.92578125,432.6171875,8.7890625,-15.13671875
1755831839.330966,-20.99609375,98.6328125,-277.34375,-19.04296875
1755831839.3347085,9.27734375,374.0234375,-68.84765625,14.16015625
1755831839.338451,26.3671875,560.05859375,92.28515625,22.94921875
1755831839.342193,16.11328125,276.3671875,-91.796875,5.859375
1755831839.345935,1.46484375,-52.734375,-335.44921875,-4.8828125
1755831839.3496776,13.671875,15.13671875,-285.64453125,22.4609375
1755831839.3534198,30.76171875,466.796875,49.31640625,35.64453125
1755831839.357162,16.6015625,269.53125,-96.6796875,19.53125
1755831839.3609042,-13.18359375,-447.75390625,-646.484375,9.765625
1755831839.364647,-3.90625,-47.36328125,-360.83984375,9.27734375
1755831839.368389,25.87890625,573.73046875,99.609375,23.92578125
1755831839.3721468,38.57421875,224.12109375,-149.90234375,31.73828125
1755831839.3759048,11.71875,-22.4609375,-355.95703125,1.953125
1755831839.3796628,-12.6953125,458.49609375,-16.11328125,-18.5546875
1755831839.3834207,8.7890625,534.66796875,59.5703125,22.4609375
1755831839.387179,16.6015625,339.35546875,-60.546875,40.0390625
1755831839.3909366,-11.23046875,98.14453125,-221.19140625,9.27734375
1755831839.3946946,-6.34765625,170.8984375,-196.2890625,-14.16015625
1755831839.3984523,27.83203125,461.9140625,24.90234375,16.6015625
1755831839.4022105,26.85546875,-172.36328125,-431.640625,47.8515625
1755831839.4059684,-5.859375,-248.53515625,-522.4609375,8.7890625
1755831839.4097264,-22.94921875,535.15625,24.4140625,-24.90234375
1755831839.4134843,6.8359375,491.69921875,11.71875,13.18359375
1755831839.41981,46.875,233.88671875,-132.8125,28.80859375
1755831839.4261358,13.671875,176.7578125,-195.80078125,-7.8125
1755831839.4324615,-24.4140625,432.6171875,-62.98828125,-43.9453125
1755831839.4387872,1.953125,278.80859375,-176.7578125,-19.53125
1755831839.445113,22.4609375,-125.0,-444.3359375,22.4609375
1755831839.451439,7.32421875,2.44140625,-314.94140625,7.8125
1755831839.4577646,-28.3203125,256.8359375,-143.06640625,-27.83203125
1755831839.4640903,-12.6953125,135.25390625,-252.9296875,-13.18359375
1755831839.470416,40.0390625,-329.1015625,-604.4921875,43.9453125
1755831839.4767418,36.62109375,244.140625,-189.94140625,30.2734375
1755831839.4830675,9.27734375,619.140625,96.6796875,-11.23046875
1755831839.4893932,-0.48828125,289.0625,-182.6171875,-13.18359375
1755831839.490532,19.04296875,375.48828125,-114.74609375,8.30078125
1755831839.4916704,50.29296875,621.09375,80.078125,24.90234375
1755831839.4928088,38.57421875,597.16796875,58.10546875,18.5546875
1755831839.4939475,0.9765625,169.43359375,-261.23046875,2.44140625
1755831839.4950862,6.34765625,57.12890625,-350.5859375,19.53125
1755831839.4962246,31.25,312.98828125,-118.1640625,50.29296875
1755831839.497363,14.6484375,222.16796875,-159.1796875,32.2265625
1755831839.4985018,-19.04296875,97.65625,-288.57421875,3.41796875
1755831839.4996405,-19.04296875,301.7578125,-166.9921875,6.8359375
1755831839.500779,15.625,647.4609375,74.70703125,40.52734375
1755831839.5019174,29.296875,547.8515625,25.390625,45.41015625
1755831839.503056,-0.9765625,162.59765625,-275.390625,15.625
1755831839.506842,-17.08984375,244.62890625,-243.1640625,-2.44140625
1755831839.5106275,19.04296875,559.08203125,24.90234375,18.06640625
1755831839.5144136,31.73828125,548.828125,29.296875,41.9921875
1755831839.5181994,4.8828125,-441.89453125,-655.76171875,25.87890625
1755831839.5219853,-23.4375,-580.078125,-794.43359375,1.46484375
1755831839.5257711,-4.8828125,139.6484375,-313.96484375,20.01953125
1755831839.5295568,42.48046875,32.2265625,-313.96484375,46.875
1755831839.5333426,30.2734375,-580.56640625,-763.671875,37.59765625
1755831839.5371284,-18.06640625,-178.7109375,-554.6875,-18.5546875
1755831839.5409143,12.20703125,681.15234375,49.31640625,-7.8125
1755831839.5447,59.5703125,412.59765625,-80.56640625,45.8984375
1755831839.548486,29.78515625,325.68359375,-114.74609375,29.78515625
1755831839.552236,-20.99609375,535.15625,-34.1796875,-6.34765625
1755831839.5559862,-15.13671875,536.1328125,-44.43359375,-8.30078125
1755831839.5597365,34.66796875,365.234375,-146.484375,19.04296875
1755831839.5634866,50.29296875,410.64453125,-103.02734375,25.87890625
1755831839.567237,9.765625,566.40625,8.7890625,4.39453125
1755831839.5709867,-4.8828125,368.65234375,-140.625,0.0
1755831839.5747368,34.1796875,-352.05078125,-637.6953125,39.0625
1755831839.578487,43.45703125,-364.74609375,-677.734375,57.12890625
1755831839.5822372,5.37109375,534.1796875,-53.7109375,23.4375
1755831839.585987,-8.7890625,474.12109375,-60.546875,-6.8359375
1755831839.5897374,16.6015625,98.14453125,-328.61328125,8.30078125
1755831839.5934875,38.0859375,344.23828125,-172.36328125,26.85546875
1755831839.5984266,21.97265625,688.4765625,67.87109375,5.859375
1755831839.603366,3.90625,395.5078125,-158.203125,-10.7421875
1755831839.608305,7.8125,150.87890625,-332.51953125,2.44140625
1755831839.613244,31.25,500.48828125,-56.15234375,25.390625
1755831839.6181834,29.296875,660.15625,76.66015625,7.32421875
1755831839.6231225,-9.765625,93.75,-353.515625,-15.13671875
1755831839.6280615,-1.953125,-487.79296875,-793.45703125,-1.46484375
1755831839.6330009,19.53125,187.5,-284.1796875,18.06640625
1755831839.63794,19.53125,768.5546875,145.5078125,26.85546875
1755831839.642879,-1.46484375,368.1640625,-159.1796875,-7.8125
1755831839.6478183,-8.7890625,216.30859375,-301.26953125,-19.04296875
1755831839.6527574,26.85546875,504.39453125,-80.078125,15.13671875
1755831839.6564548,46.38671875,460.9375,-35.15625,30.2734375
1755831839.6601524,15.625,-23.4375,-391.11328125,11.23046875
1755831839.6638498,-2.9296875,33.203125,-414.0625,-3.90625
1755831839.6675472,14.16015625,538.57421875,-29.296875,18.06640625
1755831839.6712449,50.29296875,736.81640625,179.6875,57.12890625
1755831839.6749425,61.5234375,-23.92578125,-360.3515625,76.171875
1755831839.6786397,33.69140625,-492.67578125,-749.51171875,45.41015625
1755831839.6823373,36.1328125,346.6796875,-176.7578125,37.109375
1755831839.686035,76.171875,644.04296875,63.4765625,70.80078125
1755831839.689732,88.8671875,4.8828125,-371.58203125,77.63671875
1755831839.6934297,49.8046875,42.96875,-367.1875,35.64453125
1755831839.697127,41.015625,597.16796875,5.37109375,33.69140625
1755831839.7022333,70.3125,474.609375,-65.4296875,75.68359375
1755831839.7073395,65.91796875,315.91796875,-157.2265625,87.40234375
1755831839.7124455,32.2265625,347.65625,-160.15625,46.38671875
1755831839.717552,29.296875,316.40625,-183.59375,13.18359375
1755831839.7226582,67.3828125,33.203125,-377.44140625,53.22265625
1755831839.7277646,76.66015625,-456.54296875,-712.890625,79.1015625
1755831839.7328708,25.87890625,-98.14453125,-457.03125,25.390625
1755831839.737977,-9.27734375,538.0859375,-28.3203125,-17.08984375
1755831839.7430832,29.78515625,205.078125,-250.9765625,21.484375
1755831839.7481894,59.5703125,-73.2421875,-458.0078125,63.4765625
1755831839.7532957,23.4375,482.421875,-65.4296875,36.62109375
1755831839.758402,-2.9296875,647.4609375,48.828125,5.859375
1755831839.7619936,22.94921875,235.83984375,-270.99609375,14.6484375
1755831839.7655852,46.875,250.0,-244.140625,40.52734375
1755831839.769177,29.296875,562.98828125,-1.46484375,25.390625
1755831839.7727685,-5.859375,539.55078125,-31.25,-6.8359375
1755831839.7763605,4.8828125,131.8359375,-346.19140625,-4.8828125
1755831839.779952,40.0390625,-75.1953125,-466.30859375,16.6015625
1755831839.7835436,40.0390625,132.8125,-286.62109375,29.296875
1755831839.7871354,12.20703125,131.8359375,-277.34375,7.32421875
1755831839.790727,-1.46484375,-37.109375,-435.546875,-0.48828125
1755831839.794319,28.3203125,229.98046875,-268.06640625,24.4140625
1755831839.7979102,48.828125,515.625,-21.484375,36.1328125
1755831839.801502,27.83203125,562.5,6.34765625,28.3203125
1755831839.804126,20.99609375,-347.16796875,-604.98046875,30.2734375
1755831839.80675,25.87890625,-622.55859375,-793.45703125,17.578125
1755831839.809374,36.1328125,467.7734375,-83.984375,20.5078125
1755831839.811998,27.34375,393.06640625,-110.3515625,28.80859375
1755831839.8146222,1.46484375,156.25,-287.59765625,-1.953125
1755831839.8172464,15.13671875,54.19921875,-387.20703125,3.90625
1755831839.8198705,43.9453125,233.88671875,-245.1171875,41.015625
1755831839.8224945,45.8984375,303.7109375,-157.2265625,54.6875
1755831839.8251183,4.39453125,-246.09375,-566.89453125,21.484375
1755831839.8277426,-19.53125,-53.7109375,-477.05078125,-7.8125
1755831839.8303666,10.7421875,429.6875,-125.48828125,16.11328125
1755831839.8329906,22.4609375,221.19140625,-248.53515625,36.62109375
1755831839.8368456,-14.6484375,68.359375,-361.328125,19.53125
1755831839.8407009,-23.4375,463.37890625,-80.078125,-17.578125
1755831839.844556,11.23046875,563.4765625,10.7421875,-11.23046875
1755831839.8484108,36.1328125,121.09375,-305.6640625,31.25
1755831839.852266,16.6015625,11.71875,-403.3203125,34.66796875
1755831839.856121,-16.11328125,150.390625,-320.3125,4.39453125
1755831839.859976,7.32421875,142.578125,-312.01171875,5.37109375
1755831839.8638313,50.29296875,-225.09765625,-561.5234375,57.6171875
1755831839.8676865,40.0390625,-271.97265625,-625.0,37.59765625
1755831839.8715413,-3.41796875,513.18359375,-84.9609375,-24.4140625
1755831839.8753965,6.8359375,472.65625,-123.53515625,-10.7421875
1755831839.8792517,41.015625,242.1875,-263.671875,41.50390625
1755831839.8843017,49.8046875,237.3046875,-230.95703125,52.24609375
1755831839.8893518,20.5078125,520.99609375,-55.17578125,8.7890625
1755831839.894402,12.20703125,350.09765625,-212.890625,9.765625
1755831839.8994522,50.29296875,-119.140625,-558.10546875,38.0859375
1755831839.9045024,68.359375,184.08203125,-311.5234375,40.0390625
1755831839.9095526,30.76171875,254.39453125,-216.30859375,11.71875
1755831839.914603,-0.48828125,-68.84765625,-468.26171875,3.41796875
1755831839.9196532,23.92578125,-712.890625,-895.01953125,52.734375
1755831839.9247034,41.015625,-248.046875,-563.96484375,46.875
1755831839.9297535,18.06640625,595.703125,4.39453125,3.90625
1755831839.9348035,-12.6953125,288.0859375,-222.65625,-1.953125
1755831839.939854,-4.39453125,304.6875,-230.46875,9.27734375
1755831839.9433134,28.80859375,604.4921875,-2.44140625,29.296875
1755831839.9467726,23.92578125,662.59765625,57.12890625,21.484375
1755831839.950232,-10.25390625,121.09375,-336.9140625,-7.32421875
1755831839.9536915,-23.92578125,-173.33984375,-579.58984375,-3.90625
1755831839.957151,5.859375,330.56640625,-195.80078125,13.18359375
1755831839.9606104,26.3671875,325.1953125,-132.8125,25.87890625
1755831839.9640696,-6.8359375,19.53125,-358.88671875,-0.9765625
1755831839.967529,-22.94921875,221.19140625,-243.65234375,-15.13671875
1755831839.9709885,20.99609375,555.17578125,-17.08984375,12.20703125
1755831839.9744475,55.17578125,644.53125,52.734375,25.390625
1755831839.9779072,30.76171875,-273.4375,-567.3828125,25.390625
1755831839.9813666,-9.765625,-583.49609375,-790.0390625,-7.8125
1755831839.9851663,7.8125,466.30859375,-68.359375,-15.13671875
1755831839.988966,49.8046875,529.78515625,3.90625,31.73828125
1755831839.992766,28.80859375,260.7421875,-198.2421875,34.1796875
1755831839.9965656,-3.41796875,424.8046875,-119.62890625,1.46484375
1755831840.0003653,4.8828125,523.4375,-43.9453125,-3.90625
1755831840.004165,39.55078125,127.44140625,-285.64453125,41.9921875
1755831840.0079646,49.31640625,-341.30859375,-610.3515625,45.8984375
1755831840.0117643,0.9765625,30.76171875,-360.83984375,-5.37109375
1755831840.015564,-1.953125,612.3046875,34.1796875,-21.97265625
1755831840.019364,38.57421875,216.30859375,-244.62890625,29.78515625
1755831840.0231636,32.71484375,-200.68359375,-517.08984375,42.48046875
1755831840.0269632,-9.27734375,425.29296875,-70.3125,-1.46484375
1755831840.0307984,-18.06640625,515.625,-38.57421875,-8.7890625
1755831840.0346334,10.25390625,114.74609375,-352.05078125,9.765625
1755831840.0384686,40.0390625,236.81640625,-220.21484375,26.3671875
1755831840.0423038,24.90234375,541.015625,45.41015625,12.20703125
1755831840.0461388,-8.7890625,416.9921875,-79.58984375,-11.23046875
1755831840.049974,7.32421875,-12.20703125,-395.5078125,14.6484375
1755831840.0538092,31.25,44.921875,-326.171875,41.9921875
1755831840.057644,23.4375,435.546875,-47.36328125,17.578125
1755831840.061479,9.765625,541.9921875,32.2265625,-10.7421875
1755831840.0653143,28.3203125,-286.62109375,-553.7109375,12.20703125
1755831840.0691495,43.9453125,-493.1640625,-723.6328125,37.109375
1755831840.0729847,30.76171875,526.3671875,-1.46484375,27.34375
1755831840.0767293,5.859375,416.50390625,-77.1484375,10.7421875
1755831840.080474,-4.8828125,150.87890625,-270.5078125,1.46484375
1755831840.0842187,32.71484375,456.0546875,-37.59765625,26.85546875
1755831840.087963,51.7578125,678.22265625,150.390625,42.48046875
1755831840.0917082,14.6484375,422.8515625,-42.48046875,16.11328125
1755831840.0954528,4.39453125,-42.96875,-391.6015625,0.48828125
1755831840.0991974,37.59765625,105.46875,-268.5546875,23.92578125
1755831840.1029422,52.24609375,596.19140625,74.70703125,45.41015625
1755831840.1066868,50.29296875,317.87109375,-112.3046875,46.38671875
1755831840.1104314,23.92578125,-363.76953125,-642.08984375,10.7421875
1755831840.1141765,7.8125,142.578125,-304.6875,-7.32421875
1755831840.1179209,40.0390625,604.00390625,97.16796875,32.71484375
1755831840.1217167,42.96875,14.6484375,-317.3828125,35.15625
1755831840.1255126,7.8125,-125.48828125,-468.75,-1.953125
1755831840.1293082,8.7890625,415.52734375,-109.375,0.0
1755831840.133104,41.50390625,528.80859375,15.625,35.64453125
1755831840.1369,36.62109375,295.8984375,-110.83984375,43.9453125
1755831840.1406956,-10.25390625,-1.46484375,-355.46875,15.13671875
1755831840.1444914,-20.5078125,131.34765625,-290.52734375,-10.7421875
1755831840.1482873,10.7421875,432.12890625,-84.9609375,1.46484375
1755831840.1520832,32.71484375,-170.8984375,-493.1640625,29.296875
1755831840.155879,8.7890625,-314.453125,-600.5859375,7.8125
1755831840.1596746,-12.6953125,364.2578125,-161.1328125,-20.5078125
1755831840.1634705,12.20703125,325.68359375,-182.12890625,10.7421875
1755831840.167219,40.0390625,252.9296875,-180.6640625,41.015625
1755831840.1709676,35.64453125,518.06640625,15.625,26.3671875
1755831840.174716,5.37109375,476.5625,-19.53125,-5.859375
1755831840.178465,7.32421875,92.7734375,-289.0625,9.765625
1755831840.182213,33.69140625,17.08984375,-343.26171875,41.9921875
1755831840.1859615,17.08984375,150.390625,-229.98046875,33.69140625
1755831840.18971,-14.6484375,153.80859375,-222.16796875,-2.44140625
1755831840.1934586,-1.46484375,-130.859375,-464.84375,-1.953125
1755831840.1972072,41.015625,-411.1328125,-692.87109375,40.0390625
1755831840.2009556,38.57421875,204.58984375,-244.62890625,35.64453125
1755831840.2047043,9.27734375,541.9921875,-17.08984375,5.37109375
1755831840.2084527,3.90625,187.5,-280.2734375,8.7890625
1755831840.2122073,22.4609375,225.09765625,-223.14453125,20.5078125
1755831840.215962,46.38671875,585.9375,55.6640625,16.6015625
1755831840.2197163,24.90234375,627.44140625,102.05078125,21.484375
1755831840.2234712,-9.27734375,316.40625,-148.4375,2.9296875
1755831840.2272258,16.6015625,198.2421875,-253.90625,4.8828125
1755831840.2309804,60.05859375,94.23828125,-292.48046875,41.015625
1755831840.2347353,37.109375,84.9609375,-291.015625,24.4140625
1755831840.23849,-1.46484375,-441.89453125,-656.25,-3.90625
1755831840.2422445,3.41796875,-694.82421875,-825.68359375,-10.25390625
1755831840.245999,24.90234375,263.671875,-170.8984375,-0.48828125
1755831840.2497537,21.97265625,463.8671875,-17.08984375,34.66796875
1755831840.2535083,-13.671875,263.671875,-172.36328125,15.625
1755831840.2572584,-30.76171875,391.6015625,-110.83984375,-5.859375
1755831840.2610085,14.6484375,589.35546875,44.43359375,17.578125
1755831840.2647586,43.45703125,414.55078125,-46.875,42.96875
1755831840.268509,10.7421875,196.2890625,-209.47265625,15.13671875
1755831840.2722588,-17.578125,333.0078125,-145.5078125,-19.04296875
1755831840.2760086,9.27734375,284.1796875,-153.3203125,11.71875
1755831840.2797587,38.0859375,85.9375,-234.375,40.0390625
1755831840.2835088,20.5078125,-260.7421875,-515.13671875,21.484375
1755831840.2872589,-7.8125,-24.90234375,-385.7421875,-8.7890625
1755831840.291009,11.71875,370.60546875,-103.02734375,7.32421875
1755831840.294759,52.24609375,119.140625,-268.5546875,43.9453125
1755831840.2985091,44.43359375,5.37109375,-350.5859375,25.87890625
1755831840.302369,0.0,488.76953125,-30.76171875,-25.87890625
1755831840.3062294,5.859375,586.42578125,52.734375,-3.41796875
1755831840.310089,54.6875,351.07421875,-107.421875,36.62109375
1755831840.313949,45.8984375,374.0234375,-98.14453125,24.4140625
1755831840.3178096,12.20703125,519.53125,-5.37109375,-3.90625
1755831840.3216696,9.27734375,273.92578125,-178.22265625,-4.39453125
1755831840.3255296,35.15625,-348.6328125,-617.67578125,47.8515625
1755831840.3293898,42.48046875,-299.31640625,-583.49609375,56.15234375
1755831840.3332498,13.671875,514.6484375,-8.30078125,7.32421875
1755831840.3371098,7.32421875,401.3671875,-122.0703125,-6.34765625
1755831840.34097,15.13671875,143.06640625,-298.33984375,13.18359375
1755831840.34483,34.1796875,142.08984375,-249.51171875,45.41015625
1755831840.3507996,23.92578125,308.10546875,-116.2109375,14.6484375
1755831840.356769,-8.7890625,399.90234375,-55.6640625,-5.37109375
1755831840.3627386,19.53125,106.93359375,-291.50390625,28.3203125
1755831840.368708,44.43359375,371.58203125,-87.40234375,42.96875
1755831840.3746777,30.2734375,621.58203125,142.578125,27.83203125
1755831840.3806472,9.765625,233.3984375,-148.4375,1.953125
1755831840.386617,4.8828125,-734.86328125,-851.07421875,9.765625
1755831840.3925865,25.87890625,-423.828125,-659.1796875,20.99609375
1755831840.398556,29.78515625,508.7890625,10.7421875,28.80859375
1755831840.4045255,-6.8359375,260.25390625,-162.109375,13.18359375
1755831840.410495,-17.08984375,-7.8125,-421.875,-10.7421875
1755831840.4164646,17.08984375,177.734375,-295.8984375,12.6953125
1755831840.4191265,35.64453125,436.5234375,-82.51953125,26.3671875
1755831840.4217887,12.20703125,279.78515625,-180.17578125,2.9296875
1755831840.4244506,-7.32421875,2.44140625,-376.46484375,-26.85546875
1755831840.4271126,16.6015625,206.54296875,-228.515625,-2.44140625
1755831840.4297743,38.0859375,645.01953125,122.55859375,32.2265625
1755831840.4324365,28.3203125,-126.46484375,-408.69140625,23.92578125
1755831840.4350986,-1.953125,-622.55859375,-775.390625,-1.46484375
1755831840.4377606,2.44140625,374.0234375,-77.63671875,-15.625
1755831840.4404223,43.9453125,548.828125,55.6640625,17.08984375
1755831840.4430847,36.1328125,229.4921875,-145.99609375,23.92578125
1755831840.445747,0.48828125,292.48046875,-134.27734375,-11.23046875
1755831840.4484086,6.34765625,484.86328125,-6.34765625,-3.41796875
1755831840.4521582,41.015625,333.49609375,-83.984375,21.484375
1755831840.4559076,46.875,138.671875,-222.65625,28.80859375
1755831840.4596572,14.6484375,338.8671875,-98.14453125,16.11328125
1755831840.4634068,-1.46484375,416.9921875,-81.54296875,-4.8828125
1755831840.4671562,36.1328125,254.8828125,-173.33984375,9.765625
1755831840.4709058,63.4765625,3.90625,-305.17578125,39.55078125
1755831840.4746554,17.578125,-42.96875,-335.44921875,13.671875
1755831840.4784048,-14.16015625,151.3671875,-236.81640625,-20.01953125
1755831840.4821544,27.83203125,97.65625,-301.7578125,17.08984375
1755831840.485904,65.4296875,-667.96875,-820.80078125,55.17578125
1755831840.489653,27.34375,-200.1953125,-496.58203125,17.578125
1755831840.493403,-5.37109375,503.90625,-16.6015625,-15.625
1755831840.4996493,26.85546875,264.6484375,-171.875,1.953125
1755831840.505896,58.59375,385.7421875,-50.78125,41.50390625
1755831840.5121422,46.38671875,572.265625,100.5859375,30.76171875
1755831840.5183887,6.34765625,438.96484375,-11.23046875,3.41796875
1755831840.524635,-8.7890625,213.8671875,-184.5703125,4.39453125
1755831840.5308814,27.83203125,49.8046875,-253.90625,24.90234375
1755831840.537128,39.55078125,137.6953125,-199.21875,32.71484375
1755831840.5433743,14.16015625,474.12109375,26.85546875,1.46484375
1755831840.5496209,6.8359375,-225.09765625,-463.37890625,2.9296875
1755831840.5558672,23.4375,-648.92578125,-803.22265625,30.76171875
1755831840.5621138,41.50390625,323.73046875,-120.60546875,24.4140625
1755831840.56836,13.18359375,447.265625,-12.20703125,16.11328125
1755831840.5696225,-33.203125,142.578125,-220.703125,4.39453125
1755831840.5708845,-24.4140625,326.171875,-100.09765625,-6.34765625
1755831840.572147,20.01953125,570.3125,80.078125,17.08984375
1755831840.573409,27.83203125,402.34375,-31.25,20.5078125
1755831840.5746713,-8.30078125,180.6640625,-208.0078125,-11.71875
1755831840.5759337,-10.7421875,23.92578125,-314.94140625,-9.27734375
1755831840.5771956,18.06640625,261.23046875,-100.09765625,8.30078125
1755831840.5784578,29.296875,183.59375,-163.0859375,36.62109375
1755831840.57972,-3.90625,-73.2421875,-375.9765625,10.7421875
1755831840.5809824,-27.83203125,397.94921875,-58.59375,-19.04296875
1755831840.5822446,-0.9765625,540.0390625,66.40625,11.71875
1755831840.5835068,27.83203125,141.11328125,-187.01171875,21.97265625
1755831840.588492,2.44140625,120.60546875,-221.19140625,-1.953125
1755831840.593477,-23.92578125,424.8046875,-43.45703125,-24.4140625
1755831840.598462,14.16015625,477.05078125,-18.06640625,13.671875
1755831840.6034472,53.22265625,-42.96875,-349.12109375,62.5
1755831840.6084323,25.390625,-705.56640625,-823.73046875,45.41015625
1755831840.6134171,-7.8125,-269.04296875,-526.3671875,-16.11328125
1755831840.6184022,13.671875,39.55078125,-290.0390625,-6.8359375
1755831840.623387,35.64453125,-413.57421875,-608.88671875,48.33984375
1755831840.6283724,23.92578125,-424.31640625,-618.1640625,39.55078125
1755831840.6333575,-16.11328125,375.9765625,-64.94140625,-14.16015625
1755831840.6383426,-16.11328125,435.546875,-29.78515625,-20.99609375
1755831840.6433277,17.578125,210.9375,-184.08203125,19.53125
1755831840.6470778,24.90234375,332.03125,-115.72265625,39.0625
1755831840.6508276,3.90625,369.140625,-104.00390625,9.765625
1755831840.6545775,12.20703125,16.6015625,-355.95703125,2.44140625
1755831840.6583276,33.69140625,-204.58984375,-525.87890625,26.3671875
1755831840.6620777,35.15625,247.0703125,-178.7109375,24.4140625
1755831840.6658278,14.16015625,321.77734375,-78.125,0.9765625
1755831840.6695776,-11.71875,-138.18359375,-424.8046875,-11.71875
1755831840.6733277,-1.46484375,-163.0859375,-484.86328125,-3.41796875
1755831840.6770775,21.484375,334.9609375,-112.79296875,28.3203125
1755831840.6808276,16.11328125,655.2734375,152.34375,35.15625
1755831840.6845777,7.32421875,107.91015625,-244.62890625,17.578125
1755831840.6883276,30.2734375,-529.78515625,-725.5859375,25.390625
1755831840.690838,36.62109375,143.5546875,-234.86328125,31.73828125
1755831840.6933484,18.06640625,547.36328125,90.33203125,30.76171875
1755831840.695859,-0.9765625,222.16796875,-144.53125,-4.8828125
1755831840.6983695,-3.90625,145.5078125,-237.3046875,-10.7421875
1755831840.70088,29.296875,393.06640625,-33.69140625,31.73828125
1755831840.7033906,46.38671875,234.86328125,-92.7734375,44.921875
1755831840.705901,11.71875,-207.03125,-430.6640625,17.578125
1755831840.7084117,-5.37109375,-153.80859375,-441.40625,-7.32421875
1755831840.710922,29.78515625,251.953125,-167.48046875,16.11328125
1755831840.7134323,46.875,489.74609375,53.22265625,31.73828125
1755831840.7159429,34.66796875,-279.296875,-470.703125,28.80859375
1755831840.7184534,5.37109375,-655.2734375,-783.203125,7.8125
1755831840.7234108,-5.859375,338.37890625,-103.02734375,-17.08984375
1755831840.7283683,33.203125,429.19921875,-2.44140625,21.97265625
1755831840.7333255,29.78515625,274.4140625,-69.82421875,17.578125
1755831840.7382832,-4.8828125,437.01171875,10.7421875,-31.25
1755831840.7432406,1.953125,432.6171875,-34.66796875,-19.53125
1755831840.748198,32.2265625,100.5859375,-221.19140625,32.2265625
1755831840.7531552,28.3203125,-389.6484375,-560.546875,29.78515625
1755831840.758113,-6.8359375,-61.03515625,-355.95703125,-12.6953125
1755831840.76307,-15.625,232.421875,-137.20703125,-15.625
1755831840.7680275,14.6484375,-109.86328125,-362.79296875,11.23046875
1755831840.772985,16.6015625,13.18359375,-272.4609375,14.16015625
1755831840.7779424,-11.71875,476.07421875,47.36328125,-21.97265625
1755831840.7817435,-14.6484375,499.0234375,48.828125,-31.25
1755831840.7855444,17.578125,24.4140625,-295.8984375,7.8125
1755831840.7893455,41.015625,-42.48046875,-332.51953125,42.96875
1755831840.7931466,19.04296875,448.2421875,2.44140625,17.08984375
1755831840.7969477,-7.8125,419.921875,-20.01953125,-3.41796875
1755831840.8007486,18.06640625,39.0625,-286.1328125,17.578125
1755831840.8045497,48.33984375,-60.05859375,-341.30859375,37.109375
1755831840.8083506,41.50390625,299.8046875,-83.0078125,34.1796875
1755831840.8121517,15.625,363.28125,-66.89453125,14.16015625
1755831840.8159528,7.8125,-166.50390625,-436.5234375,20.5078125
1755831840.8197536,26.85546875,-146.97265625,-399.90234375,47.36328125
1755831840.8235548,23.92578125,166.9921875,-160.15625,33.203125
1755831840.8272598,-2.44140625,40.0390625,-285.64453125,0.9765625
1755831840.8309648,-14.16015625,-72.265625,-414.55078125,-1.953125
1755831840.83467,11.23046875,185.05859375,-206.0546875,16.11328125
1755831840.838375,40.52734375,577.63671875,135.7421875,36.1328125
1755831840.84208,20.99609375,386.71875,-4.8828125,21.484375
1755831840.8457851,-3.90625,-157.71484375,-430.6640625,8.30078125
1755831840.8494902,11.23046875,-86.42578125,-412.109375,25.390625
1755831840.8531952,30.76171875,392.578125,-63.4765625,38.57421875
1755831840.8569002,23.4375,97.16796875,-251.953125,34.1796875
1755831840.8606057,0.0,-541.015625,-742.1875,7.32421875
1755831840.8643105,-15.625,-9.765625,-383.7890625,-7.8125
1755831840.8680155,25.87890625,463.8671875,-10.7421875,28.3203125
1755831840.872942,46.875,192.87109375,-188.4765625,36.62109375
1755831840.877869,7.8125,17.578125,-306.15234375,7.32421875
1755831840.882795,-2.9296875,72.75390625,-294.43359375,8.30078125
1755831840.8877218,23.4375,359.86328125,-86.42578125,25.87890625
1755831840.8926482,36.62109375,8.30078125,-303.22265625,26.85546875
1755831840.897575,9.765625,-375.9765625,-571.2890625,0.48828125
1755831840.902501,-12.20703125,44.921875,-289.0625,-19.53125
1755831840.9074278,21.97265625,414.0625,-43.9453125,10.7421875
1755831840.9123545,52.24609375,-235.83984375,-485.3515625,50.78125
1755831840.917281,13.671875,-358.3984375,-581.0546875,12.20703125
1755831840.9222076,-22.94921875,403.3203125,-54.19921875,-23.92578125
1755831840.927134,10.7421875,324.21875,-79.1015625,7.32421875
1755831840.9297905,49.8046875,190.91796875,-160.15625,32.2265625
1755831840.9324462,22.94921875,303.22265625,-112.3046875,15.625
1755831840.9351025,-24.90234375,418.45703125,-48.828125,-12.6953125
1755831840.9377584,-15.625,256.34765625,-161.62109375,-6.8359375
1755831840.940415,29.78515625,1.46484375,-314.94140625,34.1796875
1755831840.943071,45.8984375,7.32421875,-291.50390625,27.34375
1755831840.9457269,8.7890625,23.4375,-293.9453125,-15.13671875
1755831840.948383,1.46484375,-78.61328125,-380.859375,-6.34765625
1755831840.951039,49.31640625,-781.25,-871.09375,55.17578125
1755831840.9536953,45.8984375,-482.91015625,-666.015625,45.41015625
1755831840.9563513,-1.953125,495.60546875,1.46484375,-4.39453125
1755831840.9590075,-8.7890625,94.23828125,-279.78515625,-3.90625
1755831840.9627168,19.53125,-179.6875,-491.69921875,30.2734375
1755831840.966426,21.484375,451.171875,-1.953125,42.96875
1755831840.9701352,4.8828125,544.43359375,94.23828125,17.08984375
1755831840.9738443,-1.46484375,190.4296875,-210.44921875,7.32421875
1755831840.9775536,26.85546875,155.2734375,-246.09375,22.4609375
1755831840.981263,52.24609375,83.0078125,-265.13671875,52.734375
1755831840.9849722,28.3203125,95.21484375,-239.2578125,39.55078125
1755831840.9886813,6.34765625,-370.60546875,-581.54296875,16.11328125
1755831840.9923906,13.18359375,-856.93359375,-941.40625,22.94921875
1755831840.9961,33.69140625,107.421875,-274.90234375,28.80859375
1755831840.999809,35.15625,578.125,101.07421875,34.66796875
1755831841.0035183,-5.37109375,252.9296875,-118.1640625,15.13671875
1755831841.0072615,-13.671875,242.1875,-172.8515625,4.8828125
1755831841.0110044,26.3671875,413.0859375,-74.21875,30.2734375
1755831841.0147476,29.78515625,314.94140625,-98.6328125,45.8984375
1755831841.0184908,-5.37109375,189.453125,-178.7109375,24.90234375
1755831841.0222335,-25.390625,293.45703125,-132.8125,7.8125
1755831841.025977,0.48828125,179.19921875,-177.24609375,34.1796875
1755831841.02972,41.9921875,-41.015625,-281.25,65.4296875
1755831841.033463,28.80859375,-436.5234375,-597.16796875,46.38671875
1755831841.0372062,-13.18359375,-121.09375,-458.0078125,-10.25390625
1755831841.040949,0.9765625,408.203125,-64.453125,-14.16015625
1755831841.0446925,53.7109375,19.53125,-289.55078125,19.04296875
1755831841.0484354,46.875,-95.703125,-391.6015625,25.87890625
1755831841.053438,-12.6953125,335.9375,-115.72265625,-2.9296875
1755831841.0584402,-15.13671875,411.62109375,-63.96484375,-2.9296875
1755831841.0634427,31.25,66.89453125,-296.38671875,31.73828125
1755831841.0684452,30.76171875,97.16796875,-248.53515625,37.109375
1755831841.0734477,2.9296875,326.66015625,-103.515625,0.9765625
1755831841.0784502,6.34765625,86.42578125,-287.59765625,-17.08984375
1755831841.0834525,48.33984375,-495.60546875,-669.43359375,25.87890625
1755831841.088455,61.5234375,-538.57421875,-691.40625,48.828125
1755831841.0934577,18.5546875,270.99609375,-135.7421875,7.32421875
1755831841.0984595,-1.953125,194.82421875,-236.81640625,-7.32421875
1755831841.1034622,21.484375,-44.43359375,-416.50390625,17.08984375
1755831841.1084647,44.921875,189.94140625,-228.02734375,28.3203125
1755831841.1121025,24.4140625,468.75,20.5078125,15.625
1755831841.1157398,-0.48828125,140.625,-210.44921875,-3.41796875
1755831841.1193771,16.11328125,-246.09375,-521.484375,5.37109375
1755831841.1230147,42.96875,119.62890625,-261.71875,34.1796875
1755831841.1266522,38.57421875,417.96875,-40.52734375,30.76171875
1755831841.1302896,10.25390625,-77.1484375,-379.39453125,4.8828125
1755831841.133927,7.32421875,-380.859375,-612.79296875,-6.34765625
1755831841.137565,27.34375,217.7734375,-187.98828125,3.90625
1755831841.1412022,30.2734375,544.921875,62.98828125,17.08984375
1755831841.1448398,8.30078125,-27.83203125,-364.74609375,2.44140625
1755831841.148477,-15.13671875,-654.296875,-816.40625,-10.7421875
1755831841.1521146,-4.39453125,41.015625,-317.87109375,3.41796875
1755831841.1559708,25.390625,515.13671875,32.2265625,20.99609375
1755831841.159827,2.44140625,233.3984375,-164.55078125,1.46484375
1755831841.1636832,-20.99609375,68.359375,-336.42578125,-28.3203125
1755831841.1675394,16.11328125,177.734375,-273.4375,-12.6953125
1755831841.1713955,50.29296875,205.56640625,-204.1015625,25.390625
1755831841.1752515,34.1796875,-458.984375,-636.71875,33.203125
1755831841.179108,-22.4609375,-705.078125,-817.3828125,-2.9296875
1755831841.182964,-26.85546875,158.69140625,-241.2109375,-12.20703125
1755831841.1868205,23.4375,403.80859375,-25.87890625,32.2265625
1755831841.1906765,32.2265625,-1.953125,-287.59765625,30.2734375
1755831841.1945326,0.9765625,31.25,-316.40625,-15.13671875
1755831841.1983888,-8.30078125,386.23046875,-78.61328125,-22.94921875
1755831841.2021546,32.2265625,345.703125,-71.2890625,19.53125
1755831841.2059207,35.64453125,193.359375,-142.08984375,26.3671875
1755831841.2096868,3.90625,316.40625,-67.87109375,-8.7890625
1755831841.2134526,-4.8828125,434.5703125,-28.3203125,-24.90234375
1755831841.2172184,25.87890625,190.4296875,-216.30859375,2.44140625
1755831841.2209845,53.22265625,-106.93359375,-386.71875,39.0625
1755831841.2247505,32.2265625,-9.765625,-302.24609375,19.53125
1755831841.2285163,-7.8125,76.171875,-261.23046875,-15.625
1755831841.2322822,19.04296875,-180.17578125,-473.14453125,-0.48828125
1755831841.2360482,62.5,-753.41796875,-863.28125,37.59765625
1755831841.2398143,28.80859375,-369.140625,-596.19140625,5.859375
1755831841.24358,-11.23046875,188.4765625,-223.6328125,-31.73828125
1755831841.2485266,0.48828125,33.69140625,-338.37890625,-16.6015625
1755831841.2534733,37.59765625,146.97265625,-268.5546875,13.18359375
1755831841.25842,31.25,418.9453125,-56.640625,20.01953125
1755831841.2633665,-2.9296875,424.8046875,-49.31640625,-15.625
1755831841.268313,-6.8359375,94.7265625,-295.41015625,-21.97265625
1755831841.2732596,29.78515625,-138.18359375,-432.6171875,22.94921875
1755831841.2782063,39.55078125,65.4296875,-256.8359375,27.83203125
1755831841.2831528,4.39453125,348.14453125,-90.8203125,-4.8828125
1755831841.2880993,-5.37109375,-352.05078125,-606.93359375,-2.9296875
1755831841.293046,14.16015625,-508.7890625,-692.87109375,26.3671875
1755831841.2979927,29.78515625,160.64453125,-202.63671875,42.48046875
1755831841.3029392,18.06640625,136.71875,-221.19140625,30.2734375
1755831841.3054438,-10.7421875,-82.03125,-409.1796875,2.9296875
1755831841.3079486,-1.953125,70.3125,-322.75390625,13.18359375
1755831841.3104532,35.64453125,438.4765625,-19.53125,43.45703125
1755831841.3129578,41.50390625,207.03125,-168.9453125,35.64453125
1755831841.3154626,8.30078125,12.6953125,-340.8203125,-2.9296875
1755831841.3179672,-8.30078125,-11.23046875,-356.4453125,-3.90625
1755831841.3204718,20.01953125,-18.5546875,-353.515625,23.92578125
1755831841.3229766,35.15625,-69.82421875,-371.09375,37.109375
1755831841.3254812,8.7890625,-228.02734375,-512.20703125,4.8828125
1755831841.3279858,-13.18359375,133.30078125,-284.1796875,-32.71484375
1755831841.3304906,17.08984375,449.21875,-28.3203125,6.34765625
1755831841.3329952,44.43359375,46.875,-283.69140625,62.5
1755831841.3369005,6.34765625,-566.40625,-739.74609375,34.1796875
1755831841.3408055,-33.69140625,-170.41015625,-476.5625,-20.99609375
1755831841.3447108,-1.46484375,317.3828125,-108.3984375,8.7890625
1755831841.348616,41.015625,74.21875,-247.0703125,43.45703125
1755831841.3525214,18.06640625,-102.5390625,-381.8359375,32.2265625
1755831841.3564267,-7.32421875,-44.43359375,-372.0703125,12.20703125
1755831841.3603318,9.765625,0.48828125,-335.9375,-1.953125
1755831841.364237,40.52734375,-394.53125,-597.65625,24.4140625
1755831841.3681424,31.73828125,-461.42578125,-667.96875,38.0859375
1755831841.3720474,-7.32421875,369.62890625,-98.14453125,-11.71875
1755831841.3759527,-6.8359375,287.109375,-127.44140625,-14.6484375
1755831841.379858,19.04296875,104.98046875,-229.98046875,23.4375
1755831841.3834963,23.92578125,331.0546875,-69.82421875,22.94921875
1755831841.3871348,-3.90625,467.7734375,12.20703125,-1.953125
1755831841.3907733,-1.953125,300.78125,-112.79296875,0.9765625
1755831841.3944118,35.15625,66.89453125,-261.23046875,28.80859375
1755831841.39805,42.96875,39.55078125,-258.7890625,36.62109375
1755831841.4016886,10.25390625,-11.71875,-292.96875,13.671875
1755831841.405327,-4.8828125,-126.46484375,-404.296875,-2.44140625
1755831841.408965,34.66796875,-801.26953125,-898.4375,33.203125
1755831841.412604,42.96875,-410.15625,-606.93359375,45.8984375
1755831841.4162424,22.94921875,489.74609375,15.13671875,22.94921875
1755831841.4198806,9.765625,119.62890625,-289.55078125,13.671875
1755831841.4235191,12.20703125,20.01953125,-378.90625,16.11328125
1755831841.4285114,41.9921875,283.69140625,-181.640625,39.0625
1755831841.4335036,37.59765625,307.12890625,-129.8828125,46.875
1755831841.4384956,4.39453125,-16.11328125,-379.39453125,18.5546875
1755831841.443488,-9.765625,-111.81640625,-482.91015625,4.39453125
1755831841.44848,26.3671875,136.23046875,-283.69140625,26.85546875
1755831841.4534724,55.6640625,-54.19921875,-390.13671875,37.109375
1755831841.4584646,29.296875,-644.04296875,-769.53125,21.97265625
1755831841.4634569,-2.44140625,-777.34375,-880.37109375,-8.7890625
1755831841.468449,3.41796875,9.765625,-363.28125,-0.48828125
1755831841.4734411,35.15625,292.48046875,-134.765625,43.9453125
1755831841.4784334,26.3671875,-145.5078125,-442.87109375,28.80859375
1755831841.4834256,-11.23046875,-77.63671875,-411.1328125,-12.6953125
1755831841.4871278,-1.953125,366.69921875,-108.88671875,0.9765625
1755831841.49083,40.0390625,371.09375,-58.10546875,43.45703125
1755831841.494532,39.0625,173.828125,-177.734375,33.203125
1755831841.4982345,0.9765625,162.109375,-247.0703125,-1.953125
1755831841.5019364,1.46484375,235.83984375,-199.21875,8.30078125
1755831841.5056386,42.48046875,-93.26171875,-393.5546875,63.4765625
1755831841.5093408,55.6640625,-328.125,-562.98828125,64.94140625
1755831841.513043,18.06640625,97.65625,-295.8984375,9.27734375
1755831841.516745,1.953125,321.2890625,-150.87890625,-0.9765625
1755831841.5204473,48.33984375,-36.62109375,-383.7890625,39.0625
1755831841.5241494,59.08203125,-811.03515625,-897.94921875,58.59375
1755831841.5278516,1.46484375,-339.35546875,-581.54296875,15.13671875
1755831841.5315988,-12.20703125,345.703125,-131.8359375,-5.859375
1755831841.5353458,30.76171875,-95.703125,-439.453125,29.78515625
1755831841.539093,54.19921875,-88.37890625,-389.6484375,55.6640625
1755831841.54284,21.484375,354.00390625,-75.1953125,21.97265625
1755831841.5465872,-6.8359375,282.2265625,-162.59765625,-12.6953125
1755831841.5503345,7.8125,-163.0859375,-477.5390625,14.16015625
1755831841.5540814,38.0859375,-172.8515625,-445.3125,32.71484375
1755831841.557829,23.4375,291.015625,-89.35546875,11.71875
1755831841.5615757,-8.7890625,339.84375,-83.49609375,-2.44140625
1755831841.5653229,3.41796875,-294.921875,-558.10546875,1.46484375
1755831841.56907,36.62109375,-283.69140625,-548.828125,26.85546875
1755831841.572817,42.96875,396.484375,-22.94921875,30.76171875
1755831841.5789557,12.20703125,201.66015625,-137.6953125,5.37109375
1755831841.5850945,-16.11328125,-162.59765625,-447.75390625,-2.44140625
1755831841.591233,7.8125,36.62109375,-321.2890625,14.16015625
1755831841.5973718,34.66796875,332.03125,-92.28515625,28.80859375
1755831841.6035104,15.13671875,90.8203125,-274.4140625,19.53125
1755831841.6096492,5.37109375,-492.1875,-701.171875,-0.9765625
1755831841.6157875,20.01953125,-294.921875,-565.91796875,2.44140625
1755831841.6219263,38.57421875,303.7109375,-113.28125,39.0625
1755831841.628065,28.3203125,40.52734375,-290.0390625,53.7109375
1755831841.6342037,-10.25390625,-458.0078125,-663.0859375,11.71875
1755831841.6403425,-19.04296875,-4.39453125,-347.16796875,-5.37109375
1755831841.646481,20.99609375,331.54296875,-94.7265625,20.5078125
1755831841.6478834,24.4140625,108.3984375,-222.16796875,18.5546875
1755831841.649286,-15.13671875,-18.5546875,-340.33203125,-3.90625
1755831841.6506884,-18.06640625,244.62890625,-164.55078125,-11.71875
1755831841.652091,29.78515625,253.90625,-108.3984375,33.69140625
1755831841.6534934,46.875,-201.66015625,-412.109375,54.19921875
1755831841.6548958,13.671875,-416.015625,-583.0078125,20.99609375
1755831841.6562984,-9.27734375,-25.87890625,-341.796875,-11.23046875
1755831841.6577008,13.18359375,261.23046875,-139.6484375,16.6015625
1755831841.6591034,41.015625,-208.49609375,-456.54296875,52.734375
1755831841.6605058,14.6484375,-193.84765625,-472.16796875,27.34375
1755831841.6619084,-12.20703125,213.37890625,-197.265625,-2.44140625
1755831841.6633108,14.6484375,63.96484375,-288.0859375,6.34765625
1755831841.667078,54.19921875,-513.18359375,-675.29296875,50.78125
1755831841.6708455,28.80859375,-451.66015625,-650.390625,41.50390625
1755831841.6746128,-17.578125,258.30078125,-178.7109375,4.39453125
1755831841.67838,0.48828125,111.81640625,-274.4140625,-0.9765625
1755831841.6821473,38.0859375,-20.5078125,-334.9609375,24.4140625
1755831841.6859145,28.80859375,35.64453125,-256.8359375,39.55078125
1755831841.689682,-6.8359375,31.25,-243.65234375,-0.48828125
1755831841.6934493,-3.41796875,-66.40625,-335.44921875,-5.859375
1755831841.6972165,39.55078125,-779.296875,-864.2578125,44.921875
1755831841.700984,44.921875,-369.62890625,-581.54296875,40.52734375
1755831841.7047513,10.25390625,515.13671875,65.91796875,2.9296875
1755831841.7085185,2.9296875,147.4609375,-201.66015625,-2.44140625
1755831841.7122672,22.94921875,0.9765625,-350.5859375,18.5546875
1755831841.7160158,35.64453125,314.453125,-115.72265625,46.38671875
1755831841.7197642,22.4609375,375.9765625,-52.24609375,33.203125
1755831841.723513,-4.39453125,16.6015625,-315.91796875,-2.9296875
1755831841.7272615,19.53125,-88.8671875,-402.83203125,8.30078125
1755831841.73101,65.91796875,25.87890625,-286.1328125,42.48046875
1755831841.7347586,49.31640625,47.8515625,-230.95703125,32.71484375
1755831841.7385073,4.39453125,-484.375,-639.16015625,3.90625
1755831841.742256,0.9765625,-568.84765625,-721.19140625,8.30078125
1755831841.7460046,16.11328125,124.51171875,-207.51953125,31.73828125
1755831841.749753,19.04296875,88.37890625,-191.40625,29.78515625
1755831841.7535017,-1.953125,-149.90234375,-391.6015625,-0.9765625
1755831841.7572565,-17.08984375,21.484375,-328.125,-19.53125
1755831841.7610114,11.71875,493.1640625,68.359375,5.859375
1755831841.7647662,38.57421875,359.375,27.83203125,48.33984375
1755831841.768521,12.6953125,141.6015625,-175.29296875,23.4375
1755831841.772276,-25.390625,178.7109375,-202.1484375,-22.94921875
1755831841.7760303,3.90625,73.73046875,-243.65234375,-2.9296875
1755831841.7797854,55.6640625,-189.94140625,-407.71484375,42.96875
1755831841.7835402,30.76171875,-512.20703125,-657.71484375,19.04296875
1755831841.787295,-11.71875,-53.22265625,-355.46875,-37.109375
1755831841.79105,7.32421875,387.20703125,-47.8515625,-16.11328125
1755831841.7948048,37.109375,140.13671875,-202.1484375,32.71484375
1755831841.7985597,23.92578125,98.6328125,-197.265625,32.2265625
1755831841.8048267,-8.7890625,154.78515625,-154.78515625,3.41796875
1755831841.811094,-4.39453125,130.859375,-208.49609375,1.953125
1755831841.8173614,35.15625,-185.05859375,-441.89453125,45.41015625
1755831841.8236284,43.45703125,-250.0,-486.328125,49.31640625
1755831841.8298955,7.32421875,220.21484375,-138.671875,16.11328125
1755831841.8361628,-8.30078125,94.7265625,-209.9609375,-0.48828125
1755831841.84243,31.73828125,-559.08203125,-689.453125,23.4375
1755831841.8486972,57.12890625,-602.5390625,-743.1640625,39.0625
1755831841.8549645,15.13671875,249.0234375,-145.5078125,3.41796875
1755831841.8612316,-28.80859375,272.94921875,-108.3984375,-12.6953125
1755831841.8674989,0.0,-19.53125,-326.66015625,10.25390625
1755831841.873766,27.34375,191.40625,-173.33984375,24.90234375
1755831841.87617,2.9296875,449.70703125,34.66796875,2.44140625
1755831841.878574,-16.11328125,222.16796875,-143.06640625,-21.97265625
1755831841.880978,-4.8828125,-11.23046875,-304.6875,-11.23046875
1755831841.883382,26.85546875,-37.109375,-305.6640625,9.27734375
1755831841.885786,20.5078125,102.5390625,-193.359375,9.765625
1755831841.8881905,-13.671875,-90.8203125,-315.91796875,4.39453125
1755831841.8905942,-20.01953125,-566.40625,-699.21875,4.8828125
1755831841.8929982,11.71875,-134.27734375,-406.73828125,11.23046875
1755831841.8954022,25.87890625,395.99609375,17.578125,13.18359375
1755831841.8978062,-5.37109375,35.64453125,-260.25390625,-4.39453125
1755831841.9002104,-21.97265625,-225.09765625,-482.91015625,-22.4609375
1755831841.9026144,-1.46484375,187.5,-190.91796875,-0.48828125
1755831841.9063838,15.13671875,437.5,46.875,24.4140625
1755831841.9101534,17.578125,-44.921875,-261.23046875,19.53125
1755831841.9139228,-10.25390625,-710.9375,-810.05859375,-0.48828125
1755831841.9176922,-23.92578125,-81.0546875,-394.04296875,-12.6953125
1755831841.9214618,22.94921875,346.19140625,-44.43359375,20.01953125
1755831841.9252312,27.83203125,-101.5625,-352.5390625,32.71484375
1755831841.9290006,-2.9296875,-313.96484375,-509.765625,-8.7890625
1755831841.9327705,0.48828125,-135.7421875,-373.53515625,-20.5078125
1755831841.9365396,26.85546875,226.5625,-123.046875,13.18359375
1755831841.940309,46.875,-344.23828125,-534.1796875,37.109375
1755831841.9440787,-1.953125,-677.734375,-775.87890625,9.765625
1755831841.947848,-38.0859375,273.4375,-119.62890625,-18.5546875
1755831841.9527411,8.7890625,350.09765625,-57.12890625,23.4375
1755831841.9576342,33.203125,114.2578125,-203.61328125,36.1328125
1755831841.9625273,-1.46484375,257.8125,-129.8828125,-2.44140625
1755831841.9674203,-20.99609375,351.5625,-56.640625,-21.97265625
1755831841.9723134,1.46484375,202.63671875,-128.90625,9.765625
1755831841.9772065,37.109375,-130.859375,-338.37890625,41.015625
1755831841.9820995,20.5078125,-47.8515625,-289.55078125,11.23046875
1755831841.9869926,-11.71875,275.390625,-115.72265625,-22.94921875
1755831841.9918857,15.625,-42.96875,-340.8203125,0.48828125
1755831841.9967787,53.7109375,-580.078125,-691.89453125,42.48046875
1755831842.0016718,26.85546875,-35.64453125,-299.8046875,22.4609375
1755831842.0065649,-7.8125,444.3359375,33.203125,-15.13671875
1755831842.0092254,0.48828125,-6.8359375,-301.7578125,-10.25390625
1755831842.0118856,19.53125,-72.265625,-320.80078125,19.04296875
1755831842.0145462,24.90234375,395.99609375,36.62109375,14.6484375
1755831842.017207,-0.48828125,415.0390625,17.08984375,-19.53125
1755831842.0198672,-6.8359375,-128.41796875,-388.18359375,-14.6484375
1755831842.0225277,25.390625,-462.890625,-599.12109375,20.01953125
1755831842.025188,31.25,-19.04296875,-249.51171875,29.296875
1755831842.0278485,3.41796875,394.04296875,20.01953125,-2.9296875
1755831842.030509,10.7421875,-323.73046875,-526.85546875,-6.8359375
1755831842.0331693,15.625,-631.8359375,-761.71875,13.18359375
1755831842.0358298,19.53125,278.80859375,-114.2578125,10.25390625
1755831842.0384903,16.11328125,395.5078125,15.625,6.8359375
1755831842.0423036,-11.23046875,-90.8203125,-345.703125,-14.16015625
1755831842.046117,-5.37109375,-93.26171875,-398.4375,-10.25390625
1755831842.0499303,19.04296875,343.75,-57.12890625,22.4609375
1755831842.0537436,25.390625,202.63671875,-113.76953125,22.94921875
1755831842.057557,8.7890625,-234.86328125,-445.80078125,-11.71875
1755831842.0613704,0.9765625,-303.7109375,-518.5546875,-17.08984375
1755831842.0651836,20.99609375,-71.77734375,-319.3359375,19.04296875
1755831842.0689971,31.73828125,-24.90234375,-261.23046875,40.0390625
1755831842.0728104,9.27734375,-509.27734375,-635.25390625,16.6015625
1755831842.0766237,-26.85546875,-177.24609375,-438.96484375,-25.87890625
1755831842.0804372,1.953125,301.26953125,-79.1015625,10.7421875
1755831842.0842505,44.921875,85.9375,-169.921875,46.875
1755831842.087927,13.671875,56.640625,-209.9609375,13.671875
1755831842.0916042,-28.80859375,228.02734375,-150.390625,-17.578125
1755831842.0952811,9.27734375,274.4140625,-73.2421875,11.23046875
1755831842.098958,51.26953125,-22.4609375,-245.60546875,50.78125
1755831842.102635,29.78515625,-46.875,-288.0859375,20.99609375
1755831842.1063118,-14.6484375,-63.96484375,-307.12890625,-19.53125
1755831842.1099887,-10.7421875,-89.84375,-329.1015625,-8.30078125
1755831842.1136656,46.875,-419.921875,-557.6171875,48.33984375
1755831842.1173425,45.8984375,-676.7578125,-772.4609375,42.96875
1755831842.1210194,-11.23046875,180.6640625,-165.0390625,-10.7421875
1755831842.1246965,-18.5546875,342.7734375,-25.87890625,-9.27734375
1755831842.1283731,29.296875,75.68359375,-209.47265625,15.13671875
1755831842.1358678,52.24609375,229.00390625,-60.05859375,22.4609375
1755831842.1433623,15.625,455.078125,103.515625,-2.44140625
1755831842.150857,12.20703125,251.46484375,-85.44921875,-3.90625
1755831842.1583517,48.828125,100.5859375,-179.6875,21.484375
1755831842.1658463,57.12890625,305.17578125,-1.953125,40.52734375
1755831842.1733408,33.203125,113.76953125,-141.11328125,25.390625
1755831842.1808355,4.39453125,-181.15234375,-359.375,-6.8359375
1755831842.1883302,24.90234375,-798.33984375,-837.40234375,17.578125
1755831842.1958249,41.015625,-495.1171875,-651.3671875,36.1328125
1755831842.2033195,21.97265625,391.11328125,24.4140625,14.6484375
1755831842.210814,-16.6015625,87.40234375,-194.82421875,0.9765625
1755831842.2183087,-12.20703125,-102.05078125,-364.2578125,16.6015625
1755831842.2186606,29.78515625,318.84765625,-37.59765625,31.25
1755831842.2190125,35.64453125,456.54296875,85.44921875,24.90234375
1755831842.2193644,19.04296875,83.984375,-193.84765625,-1.46484375
1755831842.2197163,9.765625,-29.296875,-286.62109375,-19.53125
1755831842.2200682,23.4375,225.5859375,-99.609375,14.16015625
1755831842.22042,42.48046875,109.375,-120.1171875,36.62109375
1755831842.220772,17.08984375,-252.44140625,-399.4140625,14.6484375
1755831842.221124,-19.04296875,-106.93359375,-366.2109375,0.0
1755831842.2214758,0.48828125,211.9140625,-111.328125,21.97265625
1755831842.2218275,30.2734375,-12.6953125,-226.5625,38.0859375
1755831842.2221797,7.32421875,-253.41796875,-419.43359375,17.578125
1755831842.2225316,-23.92578125,-119.140625,-378.41796875,-20.5078125
1755831842.2270863,-3.90625,177.24609375,-159.66796875,-9.27734375
1755831842.2316413,35.15625,127.44140625,-144.53125,35.15625
1755831842.236196,39.0625,-115.234375,-311.5234375,41.50390625
1755831842.240751,6.8359375,44.43359375,-242.1875,0.9765625
1755831842.245306,9.27734375,188.4765625,-152.34375,-0.48828125
1755831842.2498608,46.38671875,-27.83203125,-252.9296875,36.1328125
1755831842.2544155,48.828125,-740.234375,-770.5078125,55.6640625
1755831842.2589705,4.8828125,-1000.0,-1000.0,20.5078125
1755831842.2635255,-21.484375,-182.12890625,-453.61328125,-30.2734375
1755831842.2680802,-0.9765625,140.13671875,-172.8515625,-3.41796875
1755831842.272635,31.73828125,56.15234375,-203.125,28.80859375
1755831842.27719,13.671875,269.53125,-48.828125,5.859375
1755831842.280939,-15.625,107.421875,-158.69140625,-22.94921875
1755831842.284688,11.23046875,-399.4140625,-539.55078125,14.6484375
1755831842.2884371,42.96875,-270.99609375,-453.61328125,41.50390625
1755831842.292186,17.578125,352.05078125,26.3671875,2.44140625
1755831842.2959352,-19.04296875,312.5,0.48828125,-16.6015625
1755831842.299684,6.34765625,-307.12890625,-480.46875,8.30078125
1755831842.3034332,34.1796875,-410.64453125,-533.69140625,44.921875
1755831842.3071823,8.7890625,173.33984375,-113.76953125,33.203125
1755831842.3109312,-15.13671875,231.93359375,-106.4453125,-10.25390625
1755831842.3146803,5.859375,-246.58203125,-462.890625,0.0
1755831842.3184292,33.69140625,-183.59375,-434.5703125,26.85546875
1755831842.3221784,31.25,319.82421875,-28.80859375,26.3671875
1755831842.3260243,4.39453125,228.515625,-70.3125,3.41796875
1755831842.3298702,-5.37109375,-10.7421875,-275.390625,-9.27734375
1755831842.3337162,13.671875,-17.578125,-260.7421875,6.34765625
1755831842.337562,21.97265625,138.671875,-111.328125,25.87890625
1755831842.341408,2.9296875,202.63671875,-82.03125,10.7421875
1755831842.345254,-13.671875,-563.96484375,-671.875,-11.23046875
1755831842.3490996,-7.8125,-601.5625,-728.02734375,-5.37109375
1755831842.3529456,16.6015625,270.99609375,-61.5234375,13.18359375
1755831842.3567915,20.5078125,189.453125,-77.1484375,26.3671875
1755831842.3606374,-11.23046875,-208.0078125,-385.7421875,12.6953125
1755831842.3644834,-19.53125,83.984375,-248.046875,-6.8359375
1755831842.3683293,26.85546875,281.73828125,-70.80078125,20.01953125
1755831842.3733318,32.2265625,118.1640625,-120.1171875,33.203125
1755831842.378334,-3.90625,88.8671875,-176.26953125,-3.41796875
1755831842.3833363,-18.5546875,210.44921875,-145.01953125,-18.06640625
1755831842.3883388,8.7890625,245.60546875,-109.375,14.6484375
1755831842.3933413,33.69140625,38.57421875,-201.171875,38.57421875
1755831842.3983436,11.71875,-243.65234375,-390.13671875,12.6953125
1755831842.403346,-6.34765625,-289.0625,-454.1015625,-9.27734375
1755831842.4083486,9.27734375,-115.72265625,-299.8046875,1.953125
1755831842.4133508,36.1328125,-502.44140625,-581.54296875,43.9453125
1755831842.4183533,17.578125,-764.16015625,-815.91796875,40.0390625
1755831842.4233556,-11.23046875,-7.32421875,-285.64453125,-7.8125
1755831842.428358,18.5546875,171.38671875,-151.3671875,14.16015625
1755831842.4308712,49.31640625,51.7578125,-188.4765625,48.33984375
1755831842.4333844,34.1796875,146.97265625,-140.13671875,20.01953125
1755831842.4358974,0.9765625,259.765625,-66.89453125,-15.625
1755831842.4384103,13.18359375,94.7265625,-161.62109375,-4.8828125
1755831842.4409237,38.57421875,-166.50390625,-354.98046875,22.4609375
1755831842.4434369,23.92578125,-138.18359375,-310.05859375,14.6484375
1755831842.44595,-10.7421875,-38.0859375,-229.00390625,-12.6953125
1755831842.4484632,-21.484375,-165.52734375,-373.53515625,0.48828125
1755831842.4509764,22.94921875,-445.80078125,-575.68359375,32.2265625
1755831842.4534893,46.38671875,-42.48046875,-244.62890625,28.80859375
1755831842.4560025,17.08984375,330.56640625,-0.9765625,-8.30078125
1755831842.4585156,-7.32421875,-138.671875,-356.93359375,-20.01953125
1755831842.4623249,3.90625,-887.20703125,-905.76171875,10.25390625
1755831842.466134,2.44140625,-282.2265625,-465.8203125,12.6953125
1755831842.4699433,1.953125,387.6953125,50.78125,-1.46484375
1755831842.4737525,-4.8828125,69.3359375,-198.73046875,-18.5546875
1755831842.4775617,-1.46484375,30.76171875,-248.046875,-12.6953125
1755831842.481371,34.66796875,27.34375,-208.0078125,22.94921875
1755831842.4851804,30.76171875,71.2890625,-127.9296875,9.765625
1755831842.4889896,-1.46484375,-385.7421875,-497.55859375,1.953125
1755831842.4927988,-10.7421875,-606.93359375,-730.95703125,10.25390625
1755831842.496608,11.71875,297.36328125,-59.5703125,11.71875
1755831842.5004172,34.66796875,349.12109375,21.97265625,28.80859375
1755831842.5042264,5.859375,-131.8359375,-312.5,7.8125
1755831842.510414,-15.625,-64.453125,-305.6640625,-11.71875
1755831842.5166016,7.32421875,332.03125,-45.8984375,10.7421875
1755831842.5227892,36.1328125,296.38671875,-16.11328125,33.203125
1755831842.528977,19.53125,-173.33984375,-337.40234375,17.08984375
1755831842.5351646,-21.97265625,-178.7109375,-389.16015625,-8.30078125
1755831842.5413525,-4.8828125,-14.6484375,-250.48828125,10.7421875
1755831842.5475397,27.34375,-117.67578125,-263.18359375,32.2265625
1755831842.5537274,6.8359375,-620.1171875,-666.50390625,21.484375
1755831842.559915,-19.53125,-329.1015625,-492.1875,-23.92578125
1755831842.5661025,1.46484375,236.81640625,-89.35546875,-17.578125
1755831842.5722902,29.78515625,70.80078125,-187.01171875,33.203125
1755831842.578478,24.4140625,103.02734375,-133.30078125,24.4140625
1755831842.579735,-5.859375,264.6484375,-82.51953125,-21.97265625
1755831842.5809925,-10.25390625,231.93359375,-113.28125,-19.53125
1755831842.5822496,21.97265625,-125.9765625,-311.5234375,23.92578125
1755831842.583507,30.2734375,-115.72265625,-293.45703125,25.87890625
1755831842.5847642,5.37109375,183.59375,-100.09765625,-15.625
1755831842.5860214,-4.39453125,-6.8359375,-229.00390625,-11.71875
1755831842.5872788,21.97265625,-521.484375,-582.51953125,40.52734375
1755831842.588536,35.64453125,-369.62890625,-474.609375,37.59765625
1755831842.5897934,3.90625,274.4140625,-27.34375,-0.9765625
1755831842.5910506,-17.08984375,213.8671875,-86.9140625,-13.18359375
1755831842.592308,11.23046875,-107.91015625,-322.75390625,7.8125
1755831842.5935652,37.59765625,2.44140625,-215.8203125,35.15625
1755831842.5983944,18.06640625,313.96484375,28.3203125,24.4140625
1755831842.6032238,-4.39453125,174.8046875,-106.93359375,-0.48828125
1755831842.608053,7.32421875,-558.59375,-660.15625,9.765625
1755831842.612882,34.66796875,-337.890625,-499.51171875,21.97265625
1755831842.6177115,38.57421875,336.9140625,50.29296875,21.484375
1755831842.6225407,16.6015625,-79.58984375,-226.07421875,-0.48828125
1755831842.62737,8.30078125,-708.984375,-749.0234375,-11.23046875
1755831842.6321993,18.5546875,-417.48046875,-562.01171875,4.8828125
1755831842.6370285,28.3203125,370.60546875,53.22265625,11.71875
1755831842.6418576,8.30078125,97.65625,-125.48828125,2.44140625
1755831842.646687,-23.92578125,-265.13671875,-428.22265625,-13.671875
1755831842.6515162,-7.8125,182.12890625,-130.37109375,0.9765625
1755831842.6553364,21.484375,413.0859375,66.40625,20.99609375
1755831842.6591568,9.765625,-10.25390625,-228.02734375,-1.953125
1755831842.662977,-16.6015625,-242.1875,-413.57421875,-20.01953125
1755831842.6667972,-3.90625,128.90625,-153.3203125,-10.7421875
1755831842.670617,26.3671875,342.28515625,31.73828125,12.20703125
1755831842.6744375,31.25,-310.05859375,-420.41015625,34.66796875
1755831842.678258,-5.859375,-796.875,-853.02734375,10.7421875
1755831842.682078,-26.3671875,-38.57421875,-297.8515625,-18.06640625
1755831842.6858983,12.6953125,116.69921875,-92.7734375,16.11328125
1755831842.6897187,27.34375,-165.52734375,-289.0625,22.4609375
1755831842.693539,-2.44140625,-10.25390625,-217.7734375,-11.23046875
1755831842.697359,-24.90234375,263.18359375,-51.7578125,-25.390625
1755831842.7024417,9.765625,249.51171875,-15.13671875,10.7421875
1755831842.707524,38.57421875,-84.9609375,-228.02734375,35.64453125
1755831842.7126064,9.765625,39.0625,-170.8984375,15.13671875
1755831842.717689,-5.37109375,396.97265625,76.171875,-12.6953125
1755831842.7227716,14.16015625,174.31640625,-78.125,-2.9296875
1755831842.727854,31.73828125,-204.1015625,-316.40625,21.97265625
1755831842.7329364,11.71875,-149.4140625,-268.06640625,5.859375
1755831842.738019,-14.16015625,174.31640625,-85.44921875,-24.90234375
1755831842.7431016,5.37109375,-48.828125,-266.11328125,-12.20703125
1755831842.748184,52.734375,-516.11328125,-599.609375,24.90234375
1755831842.7532663,37.59765625,6.34765625,-215.8203125,21.484375
1755831842.758349,-13.671875,234.375,-5.859375,-8.30078125
1755831842.760815,-13.18359375,-298.828125,-392.08984375,-3.90625
1755831842.7632806,23.4375,-262.20703125,-395.5078125,21.97265625
1755831842.7657466,37.109375,345.703125,61.03515625,20.01953125
1755831842.7682123,8.7890625,337.40234375,62.01171875,1.953125
1755831842.7706783,-5.859375,-8.30078125,-213.37890625,-9.765625
1755831842.7731442,28.80859375,-201.171875,-334.9609375,20.01953125
1755831842.77561,43.45703125,-44.43359375,-208.0078125,30.76171875
1755831842.778076,16.11328125,142.578125,-103.02734375,1.953125
1755831842.7805417,-12.6953125,-9.765625,-222.65625,-23.4375
1755831842.7830076,-10.25390625,46.875,-189.94140625,-13.18359375
1755831842.785473,11.71875,300.29296875,-14.6484375,12.20703125
1755831842.7879393,4.8828125,357.421875,43.9453125,8.7890625
1755831842.7916925,-3.41796875,-420.41015625,-543.9453125,0.0
1755831842.7954452,3.90625,-726.07421875,-800.29296875,2.9296875
1755831842.7991982,23.4375,-61.03515625,-272.4609375,17.578125
1755831842.802951,26.85546875,95.703125,-123.046875,22.4609375
1755831842.8067043,-3.41796875,-267.578125,-408.69140625,1.46484375
1755831842.8104572,-10.7421875,-362.3046875,-473.6328125,-10.25390625
1755831842.8142102,12.6953125,93.75,-114.2578125,7.8125
1755831842.8179631,29.78515625,207.51953125,-13.18359375,21.97265625
1755831842.8217163,6.34765625,-344.7265625,-437.5,6.34765625
1755831842.8254693,-18.06640625,-120.60546875,-344.7265625,-31.25
1755831842.8292222,13.18359375,348.14453125,-5.37109375,-5.859375
1755831842.8329751,49.8046875,92.28515625,-142.578125,26.3671875
1755831842.8367703,17.08984375,-21.484375,-244.62890625,-3.90625
1755831842.8405662,-23.4375,227.05078125,-117.1875,-30.76171875
1755831842.8443618,-7.32421875,309.5703125,-44.921875,-10.7421875
1755831842.8481572,24.4140625,137.6953125,-127.44140625,16.11328125
1755831842.8519526,13.18359375,146.484375,-83.49609375,4.8828125
1755831842.8557482,-23.4375,48.33984375,-171.875,-24.90234375
1755831842.8595438,-10.7421875,20.01953125,-191.89453125,-15.13671875
1755831842.8633392,27.83203125,-390.625,-473.14453125,35.64453125
1755831842.8671346,24.4140625,-741.2109375,-783.203125,29.78515625
1755831842.8709302,-13.671875,117.67578125,-159.66796875,-26.3671875
1755831842.8747258,-9.765625,303.22265625,-20.01953125,-18.5546875
1755831842.8785212,34.1796875,15.625,-246.09375,21.97265625
1755831842.8822691,48.33984375,239.74609375,-64.94140625,15.625
1755831842.8860168,10.25390625,432.6171875,82.51953125,-12.6953125
1755831842.8897648,-18.5546875,164.55078125,-117.1875,-15.625
1755831842.8935125,17.578125,22.4609375,-225.5859375,5.37109375
1755831842.8972604,45.41015625,251.953125,-35.64453125,27.83203125
1755831842.901008,19.04296875,120.1171875,-89.84375,23.4375
1755831842.904756,-15.625,-152.34375,-299.8046875,-15.625
1755831842.908504,0.9765625,-563.4765625,-636.23046875,-14.16015625
1755831842.9122517,28.3203125,-329.58984375,-452.1484375,12.6953125
1755831842.9159997,12.20703125,358.88671875,40.0390625,-7.8125
1755831842.9197474,-9.765625,-20.99609375,-257.8125,-20.99609375
1755831842.9234953,-11.71875,-340.33203125,-479.4921875,-0.9765625
1755831842.9285562,0.48828125,225.09765625,-55.6640625,12.20703125
1755831842.933617,9.27734375,382.8125,57.6171875,10.7421875
1755831842.938678,-9.27734375,60.05859375,-192.3828125,-17.578125
1755831842.943739,-21.484375,-83.984375,-334.9609375,-43.9453125
1755831842.9487998,3.41796875,118.1640625,-184.5703125,-15.13671875
1755831842.9538608,28.80859375,136.71875,-84.47265625,20.99609375
1755831842.9589214,1.953125,-473.6328125,-517.578125,10.25390625
1755831842.9639823,-29.296875,-627.44140625,-699.21875,-30.2734375
1755831842.9690433,-9.27734375,219.23828125,-99.609375,-29.78515625
1755831842.9741042,17.08984375,327.63671875,7.32421875,2.44140625
1755831842.979165,4.39453125,-69.3359375,-273.92578125,-15.13671875
1755831842.984226,-32.2265625,-187.01171875,-374.51171875,-39.55078125
1755831842.986785,-37.59765625,162.109375,-125.9765625,-25.390625
1755831842.9893436,-1.953125,230.95703125,-55.17578125,11.71875
1755831842.9919026,2.9296875,-52.734375,-228.02734375,1.953125
1755831842.9944615,-24.4140625,62.98828125,-160.64453125,-32.2265625
1755831842.9970205,-34.66796875,270.99609375,-41.50390625,-23.92578125
1755831842.9995794,1.46484375,-70.3125,-248.53515625,6.34765625
1755831843.002138,33.69140625,-412.109375,-496.58203125,7.32421875
1755831843.004697,-7.32421875,-34.1796875,-263.671875,-35.15625
1755831843.007256,-42.96875,328.125,-3.41796875,-52.734375
1755831843.0098147,-6.34765625,33.203125,-205.56640625,-3.41796875
1755831843.0123737,24.4140625,-640.625,-651.85546875,27.34375
1755831843.0149326,2.44140625,-216.30859375,-366.2109375,-18.06640625
1755831843.02361,-14.16015625,331.54296875,-3.41796875,-40.52734375
1755831843.0322876,11.71875,-11.71875,-219.23828125,-2.44140625
1755831843.0409653,36.62109375,-120.60546875,-276.85546875,26.3671875
1755831843.0496428,6.34765625,209.9609375,-58.59375,-4.8828125
1755831843.0583203,-10.25390625,281.25,-31.73828125,-33.69140625
1755831843.066998,17.578125,-454.1015625,-577.63671875,-5.37109375
1755831843.0756755,40.0390625,-841.796875,-888.18359375,30.76171875
1755831843.084353,38.57421875,26.3671875,-251.953125,10.25390625
1755831843.0930305,19.53125,222.16796875,-94.7265625,-8.7890625
1755831843.101708,1.953125,-36.62109375,-288.57421875,-2.9296875
1755831843.1103857,22.94921875,125.9765625,-143.5546875,17.578125
1755831843.1190631,41.015625,334.47265625,38.0859375,33.203125
1755831843.1192849,12.6953125,209.9609375,-56.15234375,20.99609375
1755831843.1195064,-19.53125,-165.0390625,-360.83984375,-0.48828125
1755831843.119728,1.46484375,30.76171875,-225.5859375,14.6484375
1755831843.1199496,49.8046875,291.015625,-16.11328125,32.2265625
1755831843.1201713,32.2265625,43.45703125,-178.7109375,16.6015625
1755831843.1203928,9.765625,-249.0234375,-395.5078125,3.90625
1755831843.1206143,31.25,-239.2578125,-385.25390625,19.53125
1755831843.1208365,51.7578125,8.30078125,-194.3359375,38.57421875
1755831843.1210575,36.62109375,-75.1953125,-259.765625,36.62109375
1755831843.1212797,3.90625,-247.55859375,-391.11328125,6.34765625
1755831843.121501,13.18359375,125.9765625,-142.578125,6.8359375
1755831843.1217227,35.64453125,306.640625,0.48828125,38.0859375
1755831843.1252103,27.34375,19.04296875,-189.453125,38.0859375
1755831843.1286983,-16.6015625,-109.375,-275.87890625,1.46484375
1755831843.132186,-32.71484375,89.35546875,-160.15625,-13.671875
1755831843.1356738,-3.90625,245.1171875,-61.5234375,8.30078125
1755831843.1391616,22.94921875,-174.8046875,-313.4765625,14.6484375
1755831843.1426494,19.53125,-650.87890625,-656.73828125,7.32421875
1755831843.1461372,-8.30078125,-344.23828125,-464.35546875,-2.44140625
1755831843.149625,1.953125,-55.6640625,-221.19140625,-0.9765625
1755831843.153113,42.96875,-366.69921875,-425.78125,25.87890625
1755831843.1566005,35.64453125,-1000.0,-1000.0,20.5078125
1755831843.1600883,-20.5078125,-685.546875,-789.0625,-37.109375
1755831843.163576,-24.4140625,21.484375,-236.328125,-30.2734375
1755831843.1673224,19.53125,135.7421875,-81.54296875,12.20703125
1755831843.171069,17.08984375,314.94140625,45.41015625,4.39453125
1755831843.1748147,-24.4140625,391.6015625,69.82421875,-21.484375
1755831843.178561,-16.11328125,310.546875,30.76171875,-10.7421875
1755831843.1823072,19.04296875,110.83984375,-91.796875,26.85546875
1755831843.1860535,26.3671875,53.22265625,-110.83984375,24.90234375
1755831843.1897998,-10.25390625,130.859375,-68.84765625,-16.11328125
1755831843.193546,-39.55078125,21.97265625,-183.59375,-26.3671875
1755831843.1972923,-5.37109375,-482.421875,-563.96484375,23.4375
1755831843.2010384,10.7421875,-41.50390625,-241.69921875,17.08984375
1755831843.2047846,-7.32421875,331.0546875,70.3125,-10.7421875
1755831843.208531,-13.18359375,-286.1328125,-395.99609375,-8.30078125
1755831843.2122736,7.32421875,-237.3046875,-385.7421875,-2.9296875
1755831843.2160163,22.4609375,386.71875,90.33203125,9.765625
1755831843.219759,0.9765625,462.890625,153.80859375,-6.34765625
1755831843.223502,-31.25,-188.4765625,-337.40234375,-40.52734375
1755831843.2272446,-20.5078125,-448.2421875,-564.94140625,-34.1796875
1755831843.2309873,15.13671875,-83.49609375,-250.9765625,-1.46484375
1755831843.23473,5.859375,58.10546875,-90.33203125,-0.9765625
1755831843.2384727,-20.5078125,-472.16796875,-540.0390625,-8.30078125
1755831843.2422156,-20.5078125,-592.7734375,-685.05859375,-9.27734375
1755831843.2459583,1.46484375,308.10546875,-5.37109375,0.0
1755831843.249701,24.4140625,420.41015625,132.8125,9.765625
1755831843.2534437,0.48828125,113.28125,-96.6796875,-14.6484375
1755831843.258565,-27.83203125,156.25,-106.4453125,-27.83203125
1755831843.2636862,8.7890625,196.2890625,-50.78125,-10.25390625
1755831843.2688074,37.59765625,-15.625,-172.36328125,25.390625
1755831843.2739289,4.39453125,-127.9296875,-273.4375,7.32421875
1755831843.27905,-18.5546875,2.44140625,-229.98046875,-35.15625
1755831843.284171,-0.48828125,6.34765625,-207.51953125,-10.25390625
1755831843.2892926,31.25,-127.44140625,-240.72265625,29.296875
1755831843.2944138,32.2265625,-435.05859375,-483.3984375,34.66796875
1755831843.2995353,-12.20703125,-123.046875,-331.54296875,-10.7421875
1755831843.3046565,-16.11328125,408.203125,40.52734375,-19.04296875
1755831843.3097775,15.625,108.3984375,-140.625,19.53125
1755831843.314899,15.13671875,54.19921875,-153.3203125,20.01953125
1755831843.3172915,-3.90625,327.1484375,16.11328125,-19.04296875
1755831843.3196845,-3.41796875,285.15625,-49.8046875,-29.78515625
1755831843.3220773,25.87890625,1.953125,-256.8359375,18.06640625
1755831843.3244698,31.73828125,-24.90234375,-244.140625,46.875
1755831843.3268626,1.46484375,102.5390625,-122.0703125,10.7421875
1755831843.329255,-15.625,-155.2734375,-317.87109375,-10.25390625
1755831843.331648,15.625,-507.32421875,-590.8203125,23.4375
1755831843.3340409,47.36328125,-301.7578125,-464.84375,36.62109375
1755831843.3364334,19.53125,242.67578125,-34.66796875,13.671875
1755831843.3388262,-10.25390625,308.10546875,16.11328125,-26.3671875
1755831843.341219,29.296875,-443.84765625,-574.70703125,-6.8359375
1755831843.3436117,41.50390625,-740.234375,-809.08203125,36.1328125
1755831843.3497834,9.765625,187.98828125,-119.140625,16.11328125
1755831843.355955,1.953125,222.16796875,-74.21875,-13.18359375
1755831843.3621266,11.23046875,-33.203125,-266.11328125,-2.9296875
1755831843.3682983,34.66796875,170.41015625,-130.859375,29.78515625
1755831843.3744698,29.78515625,344.7265625,24.90234375,25.390625
1755831843.3806417,15.13671875,27.34375,-173.828125,6.8359375
1755831843.3868132,12.6953125,-628.41796875,-708.49609375,7.8125
1755831843.3929846,14.6484375,-434.08203125,-579.58984375,14.16015625
1755831843.3991563,19.53125,261.23046875,-34.1796875,19.53125
1755831843.405328,8.30078125,78.61328125,-165.0390625,8.7890625
1755831843.4114995,-2.9296875,-324.21875,-491.2109375,-12.6953125
1755831843.4176712,17.578125,116.69921875,-176.7578125,2.44140625
1755831843.4202454,39.0625,341.30859375,26.85546875,36.62109375
1755831843.4228194,16.11328125,40.52734375,-204.1015625,19.53125
1755831843.4253936,-15.625,-57.6171875,-301.7578125,-11.23046875
1755831843.4279678,0.0,251.46484375,-99.609375,-9.27734375
1755831843.4305418,32.71484375,371.58203125,35.64453125,19.53125
1755831843.433116,20.5078125,-22.4609375,-199.21875,21.97265625
1755831843.4356902,-21.484375,-203.61328125,-358.3984375,-10.25390625
1755831843.438264,-14.6484375,144.04296875,-154.78515625,-10.7421875
1755831843.4408383,21.97265625,283.203125,-42.96875,15.625
1755831843.4434123,38.0859375,0.0,-220.21484375,20.5078125
1755831843.4459865,15.625,-206.54296875,-370.60546875,-7.32421875
1755831843.4485607,-20.5078125,80.078125,-193.84765625,-30.2734375
1755831843.4523113,-6.8359375,340.33203125,-13.671875,-1.953125
1755831843.4560618,27.83203125,-405.76171875,-510.25390625,24.4140625
1755831843.4598126,6.34765625,-591.30859375,-643.06640625,-11.23046875
1755831843.4635632,-32.71484375,250.9765625,-77.63671875,-47.36328125
1755831843.4673138,-7.8125,194.3359375,-133.7890625,-14.16015625
1755831843.4710643,30.76171875,-125.48828125,-306.15234375,34.66796875
1755831843.474815,6.8359375,-36.62109375,-215.8203125,11.71875
1755831843.4785657,-25.390625,283.69140625,-19.53125,-30.2734375
1755831843.482316,-2.44140625,56.640625,-215.8203125,-10.25390625
1755831843.4860668,29.296875,-517.08984375,-637.6953125,24.4140625
1755831843.4898174,12.20703125,-50.29296875,-293.45703125,7.32421875
1755831843.493568,-18.5546875,400.390625,6.8359375,-41.9921875
1755831843.4973743,-9.765625,-149.90234375,-407.2265625,-34.1796875
1755831843.5011811,19.53125,-470.703125,-611.81640625,9.27734375
1755831843.5049877,16.11328125,95.21484375,-181.640625,13.18359375
1755831843.5087943,-4.8828125,398.4375,27.83203125,-2.9296875
1755831843.5126011,-0.9765625,-182.12890625,-410.64453125,-1.953125
1755831843.5164075,3.41796875,-524.90234375,-625.48828125,25.390625
1755831843.5202143,4.39453125,22.94921875,-203.61328125,29.78515625
1755831843.524021,-6.34765625,387.6953125,35.64453125,6.34765625
1755831843.5278275,-26.85546875,-315.91796875,-498.53515625,-7.32421875
1755831843.5316343,-16.11328125,-575.1953125,-706.0546875,-6.8359375
1755831843.535441,2.9296875,323.2421875,-22.4609375,-0.9765625
1755831843.5392475,2.9296875,407.2265625,67.3828125,-1.953125
1755831843.5429256,-20.5078125,115.72265625,-169.921875,-12.20703125
1755831843.5466037,-11.71875,150.87890625,-195.80078125,-9.765625
1755831843.5502815,35.64453125,408.69140625,14.6484375,10.25390625
1755831843.5539596,36.62109375,276.3671875,-20.01953125,19.53125
1755831843.5576377,0.9765625,-190.91796875,-388.18359375,-2.44140625
1755831843.5613155,-4.8828125,-338.8671875,-536.1328125,-21.484375
1755831843.5649936,2.9296875,-182.12890625,-387.20703125,2.9296875
1755831843.5686717,10.7421875,-132.32421875,-312.98828125,26.85546875
1755831843.5723498,-1.953125,-662.109375,-737.3046875,12.20703125
1755831843.576028,-40.0390625,-401.85546875,-611.328125,-17.578125
1755831843.5797057,-10.7421875,309.5703125,-81.54296875,-2.9296875
1755831843.5833838,33.69140625,158.203125,-148.4375,27.83203125
1755831843.5883791,10.25390625,136.71875,-149.90234375,8.7890625
1755831843.5933745,-0.48828125,298.33984375,-63.96484375,-20.5078125
1755831843.5983698,15.625,274.90234375,-101.5625,-4.39453125
1755831843.6033652,30.76171875,111.328125,-198.2421875,23.92578125
1755831843.6083603,17.08984375,92.7734375,-189.94140625,9.765625
1755831843.613356,-15.625,-10.7421875,-250.0,-12.6953125
1755831843.6183512,-1.46484375,-144.53125,-354.98046875,-11.23046875
1755831843.6233466,45.8984375,-556.640625,-668.45703125,25.87890625
1755831843.628342,47.36328125,-798.828125,-863.76953125,34.66796875
1755831843.6333373,0.0,33.203125,-280.2734375,-21.484375
1755831843.6383326,0.48828125,212.890625,-158.69140625,-27.34375
1755831843.643328,32.2265625,-62.98828125,-342.7734375,10.25390625
1755831843.6458058,43.9453125,146.484375,-174.31640625,20.01953125
1755831843.648284,20.01953125,334.9609375,-55.17578125,0.0
1755831843.6507618,0.0,111.328125,-233.88671875,-7.32421875
1755831843.6532395,19.53125,-46.38671875,-333.0078125,20.01953125
1755831843.6557176,46.38671875,145.99609375,-166.9921875,46.38671875
1755831843.6581955,37.109375,58.10546875,-211.42578125,37.109375
1755831843.6606736,2.9296875,-250.48828125,-449.70703125,12.20703125
1755831843.6631515,19.04296875,-236.81640625,-495.60546875,4.39453125
1755831843.6656294,41.50390625,158.203125,-201.66015625,18.5546875
1755831843.6681075,29.78515625,318.359375,-26.85546875,23.92578125
1755831843.6705854,14.16015625,-71.2890625,-320.3125,4.39453125
1755831843.6730633,7.32421875,-858.3984375,-914.55078125,8.7890625
1755831843.6769636,19.53125,-468.75,-648.92578125,24.90234375
1755831843.680864,34.1796875,361.81640625,-35.64453125,35.64453125
1755831843.684764,13.18359375,64.453125,-238.76953125,16.11328125
1755831843.6886644,-9.765625,-45.8984375,-375.0,-5.37109375
1755831843.6925647,16.11328125,152.34375,-243.65234375,20.99609375
1755831843.696465,47.36328125,102.05078125,-213.8671875,38.57421875
1755831843.700365,29.78515625,-461.9140625,-600.09765625,24.4140625
1755831843.7042654,-0.48828125,-639.16015625,-785.64453125,-8.7890625
1755831843.7081656,22.94921875,129.39453125,-291.015625,-3.41796875
1755831843.712066,64.453125,344.7265625,-95.21484375,33.69140625
1755831843.7159662,36.1328125,146.484375,-213.8671875,6.34765625
1755831843.7198665,-14.16015625,161.62109375,-247.55859375,-25.390625
1755831843.723625,0.9765625,169.921875,-236.328125,-7.8125
1755831843.7273836,40.0390625,-95.703125,-408.203125,18.5546875
1755831843.731142,28.3203125,-54.6875,-375.48828125,15.625
1755831843.7349005,-6.8359375,196.2890625,-217.7734375,-7.8125
1755831843.738659,-0.9765625,193.359375,-235.83984375,-9.27734375
1755831843.742417,35.15625,-35.15625,-364.74609375,14.16015625
1755831843.746176,43.45703125,-740.234375,-825.68359375,34.66796875
1755831843.7499344,0.0,-596.19140625,-754.39453125,0.9765625
1755831843.7536929,-27.34375,309.08203125,-161.62109375,-37.109375
1755831843.7574515,21.97265625,31.25,-349.609375,9.765625
1755831843.76121,46.875,-319.3359375,-569.82421875,45.8984375
1755831843.7649684,7.8125,90.8203125,-263.671875,19.53125
1755831843.7697823,-23.4375,315.4296875,-129.39453125,-7.8125
1755831843.7745967,0.0,-18.5546875,-384.765625,7.8125
1755831843.7794108,40.0390625,27.83203125,-313.4765625,37.59765625
1755831843.784225,23.92578125,179.19921875,-165.0390625,26.85546875
1755831843.7890391,-5.37109375,23.92578125,-316.40625,-0.48828125
1755831843.7938533,22.4609375,-455.078125,-656.73828125,18.06640625
1755831843.7986677,56.640625,-866.2109375,-936.5234375,58.59375
1755831843.8034818,32.71484375,12.6953125,-319.82421875,42.96875
1755831843.808296,-12.20703125,426.7578125,1.46484375,4.8828125
1755831843.81311,-15.625,-67.87109375,-409.1796875,2.44140625
1755831843.8179245,18.06640625,21.484375,-367.1875,35.64453125
1755831843.8227384,38.57421875,412.59765625,-64.94140625,45.8984375
1755831843.8265176,24.4140625,252.9296875,-162.59765625,21.484375
1755831843.8302965,-5.37109375,-46.38671875,-397.4609375,13.18359375
1755831843.8340757,3.90625,132.8125,-287.59765625,28.3203125
1755831843.8378546,39.0625,421.38671875,-42.96875,52.734375
1755831843.8416338,39.55078125,231.93359375,-164.55078125,51.26953125
1755831843.8454127,10.25390625,-238.28125,-507.8125,19.53125
1755831843.849192,12.6953125,-381.8359375,-617.67578125,17.08984375
1755831843.852971,43.45703125,-76.171875,-405.2734375,42.96875
1755831843.85675,50.78125,45.41015625,-299.31640625,30.76171875
1755831843.8605292,16.11328125,-682.12890625,-820.3125,19.04296875
1755831843.864308,-12.6953125,-383.30078125,-647.4609375,-4.8828125
1755831843.8680873,13.671875,311.03515625,-142.08984375,5.859375
1755831843.8719308,33.69140625,57.6171875,-307.6171875,33.203125
1755831843.875774,5.37109375,-11.71875,-375.0,-1.953125
1755831843.8796177,-14.16015625,217.28515625,-239.74609375,-16.11328125
1755831843.8834612,18.5546875,229.98046875,-192.3828125,20.5078125
1755831843.8873043,34.66796875,1.953125,-318.359375,44.43359375
1755831843.891148,9.27734375,-331.54296875,-575.68359375,44.921875
1755831843.8949916,-10.25390625,-203.125,-511.23046875,16.6015625
1755831843.898835,7.32421875,212.890625,-232.91015625,6.8359375
1755831843.9026785,46.38671875,-318.359375,-563.96484375,49.8046875
1755831843.906522,24.4140625,-740.72265625,-831.0546875,29.296875
1755831843.910365,-20.01953125,-94.7265625,-424.8046875,-19.04296875
1755831843.914209,-11.23046875,109.375,-317.3828125,0.48828125
1755831843.919159,26.85546875,-136.71875,-468.75,40.52734375
1755831843.924109,19.53125,20.99609375,-321.77734375,35.64453125
1755831843.929059,-23.92578125,261.71875,-153.3203125,-5.37109375
1755831843.9340093,-12.6953125,71.77734375,-332.03125,-1.46484375
1755831843.9389594,22.94921875,-237.3046875,-530.76171875,29.296875
1755831843.9439094,11.23046875,-302.734375,-543.45703125,20.01953125
1755831843.9488597,-26.85546875,-61.5234375,-367.1875,-14.6484375
1755831843.9538095,-28.3203125,-7.32421875,-348.14453125,-20.5078125
1755831843.9587598,15.625,-693.84765625,-837.40234375,32.2265625
1755831843.9637098,41.9921875,-360.83984375,-604.00390625,43.45703125
1755831843.96866,23.92578125,416.50390625,-52.24609375,15.625
1755831843.97361,-7.8125,81.54296875,-301.7578125,-3.90625
1755831843.9762206,-0.9765625,-236.81640625,-530.2734375,16.11328125
1755831843.9788315,29.78515625,-49.8046875,-385.25390625,40.0390625
1755831843.9814425,26.85546875,266.6015625,-180.17578125,12.6953125
1755831843.9840531,4.8828125,-222.65625,-555.17578125,0.0
1755831843.9866638,9.765625,-503.41796875,-758.30078125,14.16015625
1755831843.9892747,36.1328125,-96.19140625,-431.640625,25.390625
1755831843.9918857,39.55078125,-88.37890625,-391.11328125,32.2265625
1755831843.9944963,9.27734375,-336.42578125,-587.40234375,10.7421875
1755831843.997107,-9.765625,-199.21875,-564.94140625,-2.9296875
1755831843.999718,23.92578125,194.82421875,-258.7890625,20.01953125
1755831844.0023289,49.8046875,381.8359375,-56.640625,41.9921875
1755831844.0049396,33.69140625,-343.26171875,-561.03515625,38.0859375
1755831844.008562,-5.37109375,-649.4140625,-838.37890625,7.32421875
1755831844.0121846,2.44140625,106.4453125,-369.62890625,5.37109375
1755831844.015807,43.9453125,217.7734375,-215.8203125,25.87890625
1755831844.0194294,22.4609375,-170.8984375,-447.75390625,10.7421875
1755831844.023052,-20.99609375,-217.7734375,-545.41015625,-17.08984375
1755831844.0266745,-9.765625,-116.2109375,-461.9140625,-0.48828125
1755831844.0302968,38.57421875,-203.61328125,-484.86328125,27.34375
1755831844.033919,50.29296875,-751.953125,-844.7265625,40.0390625
1755831844.037542,2.44140625,-588.8671875,-771.484375,13.18359375
1755831844.0411644,-11.23046875,259.27734375,-239.74609375,-10.25390625
1755831844.0447867,24.90234375,56.15234375,-343.26171875,26.3671875
1755831844.0484092,32.71484375,-6.8359375,-353.515625,30.2734375
1755831844.0534098,0.0,258.7890625,-153.80859375,-1.46484375
1755831844.0584106,-9.27734375,299.8046875,-132.32421875,-13.18359375
1755831844.0634112,28.3203125,-160.15625,-477.5390625,8.7890625
1755831844.0684118,47.8515625,-315.91796875,-588.37890625,14.16015625
1755831844.073413,15.13671875,125.0,-277.83203125,-4.8828125
1755831844.0784132,-15.13671875,63.96484375,-294.43359375,-0.9765625
1755831844.0834138,24.90234375,-520.01953125,-680.6640625,36.62109375
1755831844.088415,65.91796875,-813.96484375,-879.39453125,57.12890625
1755831844.0934153,20.01953125,73.73046875,-265.625,12.6953125
1755831844.098416,-9.27734375,342.7734375,-107.91015625,-14.16015625
1755831844.1034167,12.6953125,-163.0859375,-486.81640625,0.0
1755831844.1084173,33.203125,9.27734375,-354.00390625,23.92578125
1755831844.1121268,30.76171875,340.33203125,-124.51171875,22.94921875
1755831844.115836,12.20703125,106.93359375,-297.36328125,0.0
1755831844.1195457,5.37109375,-138.671875,-471.19140625,5.859375
1755831844.1232553,27.83203125,48.33984375,-319.82421875,36.62109375
1755831844.1269648,41.9921875,230.95703125,-163.57421875,31.73828125
1755831844.1306744,12.20703125,-110.3515625,-395.5078125,7.8125
1755831844.1343837,-8.30078125,-295.41015625,-538.0859375,2.44140625
1755831844.1380932,17.08984375,46.875,-340.8203125,16.6015625
1755831844.1418028,35.64453125,304.6875,-123.046875,22.4609375
1755831844.145512,5.37109375,-42.48046875,-342.28515625,0.48828125
1755831844.1492217,-19.04296875,-901.3671875,-966.30859375,-14.16015625
1755831844.1529312,-9.765625,-488.76953125,-708.49609375,-5.859375
1755831844.15677,18.5546875,391.6015625,-78.125,16.11328125
1755831844.1606088,22.4609375,63.96484375,-298.828125,12.20703125
1755831844.1644473,2.9296875,-146.97265625,-501.46484375,-15.625
1755831844.168286,9.27734375,177.734375,-284.66796875,-1.46484375
1755831844.1721249,30.76171875,247.55859375,-210.44921875,39.0625
1755831844.1759634,25.390625,-253.41796875,-564.453125,50.78125
1755831844.1798022,-0.9765625,-512.6953125,-766.6015625,19.04296875
1755831844.183641,-4.39453125,-74.70703125,-470.703125,-4.39453125
1755831844.1874795,34.1796875,197.265625,-251.46484375,22.94921875
1755831844.1913185,49.8046875,-330.56640625,-597.16796875,33.203125
1755831844.195157,-1.953125,-430.6640625,-680.17578125,-5.37109375
1755831844.1989958,-32.71484375,31.25,-359.375,-29.78515625
1755831844.2039587,16.6015625,-54.19921875,-402.34375,7.8125
1755831844.2089217,40.52734375,-313.96484375,-585.9375,39.0625
1755831844.2138846,-0.48828125,-99.12109375,-455.078125,6.34765625
1755831844.2188475,-22.4609375,274.90234375,-184.5703125,-19.04296875
1755831844.2238104,-6.34765625,58.59375,-338.8671875,1.953125
1755831844.2287734,19.53125,-252.9296875,-531.25,30.2734375
1755831844.2337365,11.71875,-159.1796875,-465.33203125,5.37109375
1755831844.2386992,-16.6015625,184.08203125,-263.18359375,-33.203125
1755831844.243662,1.953125,-7.32421875,-398.4375,-3.90625
1755831844.248625,47.36328125,-680.6640625,-833.49609375,46.38671875
1755831844.253588,29.78515625,-323.73046875,-586.42578125,31.73828125
1755831844.258551,0.9765625,303.7109375,-164.0625,-3.90625
1755831844.2635376,5.859375,-116.2109375,-465.8203125,1.953125
1755831844.2685244,35.64453125,-256.34765625,-561.03515625,31.73828125
1755831844.2735114,38.0859375,202.63671875,-198.73046875,34.1796875
1755831844.2784982,0.9765625,22.4609375,-309.5703125,9.27734375
1755831844.283485,-12.6953125,-488.76953125,-703.125,11.71875
1755831844.2884717,16.6015625,-633.7890625,-815.91796875,33.69140625
1755831844.2934585,39.55078125,-63.96484375,-379.8828125,34.66796875
1755831844.2984452,34.66796875,328.61328125,-64.453125,21.484375
1755831844.303432,4.39453125,-38.57421875,-360.3515625,0.9765625
1755831844.308419,7.32421875,-102.5390625,-466.796875,5.859375
1755831844.3134058,42.48046875,288.57421875,-171.38671875,35.15625
1755831844.3183925,32.71484375,469.23828125,8.30078125,26.85546875
1755831844.3196585,4.8828125,-331.0546875,-544.43359375,6.34765625
1755831844.3209238,-1.953125,-512.20703125,-698.73046875,14.6484375
1755831844.322189,22.4609375,359.86328125,-74.70703125,32.71484375
1755831844.323455,40.0390625,277.34375,-119.140625,41.015625
1755831844.3247209,9.27734375,-13.671875,-332.51953125,31.73828125
1755831844.3259864,-7.32421875,-168.45703125,-450.68359375,19.04296875
1755831844.327252,28.80859375,-122.55859375,-402.34375,35.64453125
1755831844.3285177,50.78125,-152.34375,-379.39453125,40.52734375
1755831844.3297834,15.625,-250.0,-485.3515625,15.13671875
1755831844.331049,-0.9765625,34.1796875,-353.02734375,-2.9296875
1755831844.3323145,30.76171875,336.9140625,-101.5625,9.27734375
1755831844.3335805,57.6171875,27.34375,-268.5546875,45.41015625
1755831844.3373303,32.2265625,-224.12109375,-465.33203125,36.1328125
1755831844.341081,-2.9296875,118.1640625,-274.4140625,-1.953125
1755831844.344831,7.32421875,267.08984375,-171.875,0.0
1755831844.348581,47.36328125,-180.6640625,-436.03515625,48.828125
1755831844.3523312,43.9453125,-864.74609375,-920.41015625,55.6640625
1755831844.3560815,-10.25390625,-450.1953125,-635.7421875,-3.90625
1755831844.3598318,-6.8359375,12.20703125,-289.0625,-13.18359375
1755831844.363582,39.0625,-386.71875,-574.70703125,33.203125
1755831844.367332,42.48046875,-638.671875,-763.18359375,31.25
1755831844.3710823,-1.953125,-27.34375,-331.54296875,-20.99609375
1755831844.3748326,-15.13671875,149.4140625,-249.51171875,-19.04296875
1755831844.3785827,23.4375,-182.12890625,-503.90625,15.625
1755831844.382445,38.0859375,-19.04296875,-353.02734375,31.73828125
1755831844.3863077,7.8125,350.09765625,-70.80078125,12.6953125
1755831844.3901703,-14.6484375,199.21875,-203.125,-14.16015625
1755831844.394033,-1.46484375,16.11328125,-354.4921875,11.23046875
1755831844.397895,22.4609375,132.32421875,-261.71875,32.71484375
1755831844.401758,14.6484375,22.4609375,-316.40625,21.484375
1755831844.4056206,-22.94921875,-242.67578125,-503.90625,-2.44140625
1755831844.409483,-16.11328125,-622.55859375,-780.76171875,-3.41796875
1755831844.4133456,16.11328125,-194.82421875,-490.234375,21.97265625
1755831844.4172082,20.5078125,390.625,-90.8203125,20.5078125
1755831844.4210706,-1.46484375,-18.06640625,-400.87890625,-10.25390625
1755831844.4249332,-14.6484375,-291.015625,-588.37890625,-16.11328125
1755831844.429934,19.53125,-95.21484375,-427.24609375,7.32421875
1755831844.434935,35.15625,221.6796875,-203.61328125,15.13671875
1755831844.439936,15.625,-160.64453125,-503.41796875,-10.25390625
1755831844.444937,-3.90625,-422.36328125,-740.72265625,-29.296875
1755831844.4499378,9.765625,88.8671875,-331.0546875,0.0
1755831844.454939,32.2265625,72.265625,-277.83203125,27.83203125
1755831844.4599397,15.625,-503.90625,-676.26953125,14.6484375
1755831844.4649403,-12.6953125,-827.63671875,-923.828125,-2.9296875
1755831844.4699416,-5.859375,-62.5,-427.24609375,-12.20703125
1755831844.4749424,32.2265625,287.109375,-139.16015625,11.23046875
1755831844.4799435,21.484375,107.421875,-264.6484375,8.7890625
1755831844.4849443,-20.01953125,201.171875,-238.76953125,-35.64453125
