timestamps,eeg_1,eeg_2,eeg_3,eeg_4
1755830241.6373122,-319.82421875,271.484375,-1000.0,-254.39453125
1755830241.6375396,-460.44921875,202.63671875,-1000.0,-236.81640625
1755830241.637767,-256.34765625,-82.03125,-1000.0,-152.34375
1755830241.6379943,-80.56640625,-42.48046875,-1000.0,-157.71484375
1755830241.638222,-213.37890625,76.171875,-1000.0,-215.33203125
1755830241.6384492,-407.2265625,-150.87890625,-1000.0,-208.0078125
1755830241.6386766,-332.51953125,-369.62890625,-1000.0,-170.8984375
1755830241.638904,-149.4140625,-4.39453125,-1000.0,-213.8671875
1755830241.6391315,-166.9921875,375.9765625,-999.0234375,-240.234375
1755830241.639359,-341.30859375,105.95703125,-999.0234375,-184.5703125
1755830241.6395864,-349.12109375,-388.671875,-1000.0,-129.39453125
1755830241.639814,-191.40625,-104.4921875,-998.046875,-181.640625
1755830241.644649,-122.0703125,388.671875,-979.98046875,-210.44921875
1755830241.6494842,-264.16015625,136.23046875,-987.79296875,-151.3671875
1755830241.6543193,-361.328125,-500.48828125,-1000.0,-102.05078125
1755830241.6591544,-267.08984375,-137.6953125,-978.515625,-181.640625
1755830241.6639895,-90.33203125,531.73828125,-844.23828125,-179.19921875
1755830241.668825,-146.97265625,135.7421875,-931.15234375,-86.42578125
1755830241.67366,-255.37109375,-839.35546875,-1000.0,9.27734375
1755830241.6784952,-254.39453125,-649.4140625,-1000.0,-103.02734375
1755830241.6833303,-172.8515625,549.31640625,-907.71484375,-246.58203125
1755830241.6881654,-121.09375,381.34765625,-869.140625,-109.375
1755830241.6930006,-321.77734375,-120.60546875,-1000.0,-97.65625
1755830241.6978357,-376.46484375,328.61328125,-1000.0,-202.1484375
1755830241.7015529,-121.09375,657.2265625,-903.3203125,-153.80859375
1755830241.70527,-50.78125,335.9375,-908.69140625,-86.9140625
1755830241.7089872,-316.40625,129.39453125,-1000.0,-160.64453125
1755830241.7127044,-413.57421875,395.99609375,-998.046875,-248.046875
1755830241.7164216,-138.18359375,480.95703125,-996.09375,-201.171875
1755830241.720139,-7.32421875,245.60546875,-999.0234375,-159.1796875
1755830241.7238562,-276.3671875,159.66796875,-1000.0,-249.51171875
1755830241.7275734,-441.40625,354.4921875,-1000.0,-293.9453125
1755830241.7312906,-208.984375,465.33203125,-1000.0,-203.125
1755830241.7350078,64.94140625,-147.4609375,-1000.0,-64.94140625
1755830241.738725,-135.7421875,-404.78515625,-1000.0,-145.99609375
1755830241.742442,-445.3125,226.5625,-997.55859375,-277.34375
1755830241.746215,-278.3203125,306.640625,-1000.0,-173.828125
1755830241.7499886,-30.2734375,170.41015625,-979.98046875,-112.3046875
1755830241.7537618,-164.55078125,329.1015625,-922.36328125,-223.6328125
1755830241.757535,-408.69140625,417.48046875,-963.8671875,-269.53125
1755830241.7613082,-327.63671875,135.25390625,-1000.0,-159.1796875
1755830241.7650814,-69.82421875,-63.96484375,-999.0234375,-85.44921875
1755830241.7688546,-98.6328125,159.1796875,-997.55859375,-163.57421875
1755830241.7726278,-368.65234375,364.74609375,-990.72265625,-230.95703125
1755830241.776401,-332.03125,-40.52734375,-1000.0,-92.7734375
1755830241.7801745,-91.30859375,-361.328125,-1000.0,-20.01953125
1755830241.7839477,-95.21484375,252.44140625,-944.3359375,-162.109375
1755830241.787721,-250.9765625,468.26171875,-942.3828125,-147.4609375
1755830241.7916956,-320.3125,-138.671875,-1000.0,-46.875
1755830241.7956705,-195.3125,-46.875,-942.3828125,-89.84375
1755830241.7996454,-44.921875,513.671875,-815.4296875,-146.97265625
1755830241.8036203,-170.41015625,526.3671875,-845.21484375,-167.48046875
1755830241.8075953,-304.19921875,-48.33984375,-958.984375,-119.140625
1755830241.8115702,-197.75390625,-408.203125,-1000.0,-93.26171875
1755830241.815545,-87.890625,162.109375,-966.796875,-184.08203125
1755830241.8195202,-133.7890625,559.5703125,-868.65234375,-204.58984375
1755830241.8234951,-260.25390625,-183.10546875,-956.0546875,-82.51953125
1755830241.82747,-323.2421875,-439.453125,-1000.0,-137.20703125
1755830241.831445,-170.41015625,409.66796875,-927.734375,-237.79296875
1755830241.83542,-30.76171875,397.4609375,-907.71484375,-153.80859375
1755830241.8389506,-255.859375,106.93359375,-998.046875,-167.48046875
1755830241.8424816,-386.71875,173.33984375,-1000.0,-197.75390625
1755830241.8460124,-171.38671875,394.04296875,-920.8984375,-151.3671875
1755830241.849543,29.296875,218.75,-886.71875,-56.15234375
1755830241.8530738,-150.390625,-172.8515625,-1000.0,-63.96484375
1755830241.8566046,-387.20703125,-206.0546875,-1000.0,-126.46484375
1755830241.8601356,-247.55859375,32.2265625,-987.79296875,-114.74609375
1755830241.8636663,6.34765625,233.3984375,-972.16796875,-45.41015625
1755830241.867197,9.27734375,-623.53515625,-996.09375,70.80078125
1755830241.870728,-364.74609375,-552.24609375,-1000.0,-115.72265625
1755830241.8742588,-392.578125,429.6875,-883.30078125,-207.03125
1755830241.8777895,-24.90234375,386.71875,-875.48828125,-66.89453125
1755830241.8827946,-50.78125,321.77734375,-849.609375,-91.30859375
1755830241.8877995,-334.9609375,431.15234375,-771.484375,-156.25
1755830241.8928049,-317.87109375,297.8515625,-921.38671875,-121.58203125
1755830241.89781,-76.171875,150.87890625,-974.12109375,-88.8671875
1755830241.902815,-19.04296875,185.05859375,-942.3828125,-132.8125
1755830241.9078202,-221.6796875,-39.55078125,-985.83984375,-151.3671875
1755830241.912825,-374.51171875,-180.6640625,-1000.0,-169.921875
1755830241.9178305,-98.6328125,-547.8515625,-1000.0,-59.08203125
1755830241.9228356,25.390625,-573.73046875,-970.703125,-114.2578125
1755830241.9278407,-281.25,230.95703125,-947.75390625,-299.8046875
1755830241.9328458,-376.953125,173.33984375,-997.55859375,-214.84375
1755830241.937851,-200.68359375,-40.0390625,-1000.0,-147.94921875
1755830241.9403758,-31.25,239.74609375,-946.77734375,-172.36328125
1755830241.942901,-129.8828125,420.8984375,-893.06640625,-208.49609375
1755830241.9454255,-312.98828125,80.56640625,-977.05078125,-182.12890625
1755830241.9479506,-256.8359375,-175.78125,-1000.0,-149.4140625
1755830241.9504757,-56.15234375,152.34375,-966.30859375,-155.76171875
1755830241.9530003,-32.2265625,188.96484375,-975.09765625,-136.71875
1755830241.9555252,-219.23828125,-283.69140625,-1000.0,-105.95703125
1755830241.95805,-291.015625,-371.58203125,-999.0234375,-127.44140625
1755830241.960575,-100.5859375,135.25390625,-998.53515625,-146.484375
1755830241.9631,19.53125,244.140625,-999.0234375,-109.86328125
1755830241.9656248,-158.203125,-154.296875,-995.1171875,-93.75
1755830241.9681497,-276.3671875,-803.7109375,-1000.0,-64.453125
1755830241.9731536,-240.72265625,-211.42578125,-987.3046875,-199.70703125
1755830241.9781573,-77.63671875,535.64453125,-826.171875,-196.2890625
1755830241.9831612,-142.578125,209.9609375,-885.25390625,-126.953125
1755830241.9881651,-362.3046875,86.9140625,-1000.0,-167.96875
1755830241.9931688,-235.83984375,202.63671875,-994.62890625,-123.53515625
1755830241.9981728,20.99609375,158.69140625,-999.0234375,-60.05859375
1755830242.0031767,-11.71875,-351.5625,-1000.0,-30.76171875
1755830242.0081804,-305.6640625,-538.0859375,-1000.0,-124.0234375
1755830242.0131843,-377.44140625,110.83984375,-1000.0,-228.515625
1755830242.0181882,-70.80078125,301.26953125,-982.91015625,-148.92578125
1755830242.023192,-16.6015625,203.125,-987.3046875,-141.6015625
1755830242.028196,-278.3203125,152.83203125,-1000.0,-182.6171875
1755830242.0332904,-350.5859375,-1.953125,-999.0234375,-156.73828125
1755830242.038385,-102.05078125,-46.38671875,-1000.0,-99.609375
1755830242.043479,9.27734375,-89.35546875,-1000.0,-106.93359375
1755830242.0485735,-280.76171875,85.44921875,-1000.0,-225.09765625
1755830242.053668,-424.8046875,219.23828125,-995.1171875,-206.0546875
1755830242.0587623,-156.73828125,-139.6484375,-1000.0,-71.2890625
1755830242.0638566,-3.90625,-136.71875,-969.7265625,-80.56640625
1755830242.0689511,-219.7265625,304.6875,-900.87890625,-191.89453125
1755830242.0740457,-404.78515625,343.26171875,-970.703125,-199.21875
1755830242.07914,-215.33203125,-104.98046875,-1000.0,-58.59375
1755830242.0842342,23.4375,-394.53125,-988.76953125,-27.34375
1755830242.0893288,-144.04296875,176.7578125,-958.49609375,-201.66015625
1755830242.092908,-351.07421875,299.8046875,-988.28125,-201.66015625
1755830242.0964873,-311.5234375,40.52734375,-1000.0,-135.25390625
1755830242.100067,-55.17578125,95.21484375,-985.83984375,-85.9375
1755830242.103646,-2.9296875,125.0,-993.1640625,-102.05078125
1755830242.1072252,-258.30078125,114.74609375,-996.58203125,-147.4609375
1755830242.1108046,-317.87109375,-268.5546875,-1000.0,-79.58984375
1755830242.114384,-145.99609375,-175.78125,-968.75,-98.14453125
1755830242.117963,-46.875,418.9453125,-809.5703125,-150.390625
1755830242.1215425,-189.94140625,275.390625,-877.44140625,-113.76953125
1755830242.1251218,-349.12109375,-180.6640625,-1000.0,-101.07421875
1755830242.128701,-222.65625,-104.4921875,-1000.0,-109.375
1755830242.1322803,-28.3203125,276.3671875,-936.5234375,-128.41796875
1755830242.1371615,-125.0,225.5859375,-908.203125,-145.5078125
1755830242.1420429,-245.60546875,-665.0390625,-1000.0,-38.0859375
1755830242.1469245,-269.04296875,-678.22265625,-1000.0,-115.72265625
1755830242.1518056,-135.7421875,258.7890625,-956.54296875,-231.93359375
1755830242.1566868,-60.546875,190.4296875,-934.08203125,-129.39453125
1755830242.1615682,-286.62109375,-242.67578125,-1000.0,-119.62890625
1755830242.1664495,-348.14453125,-290.0390625,-1000.0,-156.25
1755830242.1713307,-125.0,30.76171875,-989.2578125,-155.2734375
1755830242.176212,-18.5546875,41.015625,-979.98046875,-124.0234375
1755830242.1810937,-249.0234375,-145.99609375,-996.58203125,-168.9453125
1755830242.1859746,-411.1328125,11.23046875,-1000.0,-234.86328125
1755830242.190856,-203.125,212.890625,-958.0078125,-204.58984375
1755830242.1946082,34.66796875,16.11328125,-944.3359375,-132.32421875
1755830242.1983607,-147.4609375,-611.81640625,-1000.0,-167.96875
1755830242.202113,-503.90625,-133.30078125,-1000.0,-353.515625
1755830242.2058654,-314.453125,333.49609375,-929.6875,-279.78515625
1755830242.2096176,-39.0625,223.14453125,-919.43359375,-199.70703125
1755830242.2133698,-130.859375,-11.23046875,-1000.0,-221.6796875
1755830242.2171223,-391.11328125,-55.17578125,-999.0234375,-266.11328125
1755830242.2208743,-350.5859375,171.875,-999.0234375,-245.60546875
1755830242.224627,-7.32421875,-283.69140625,-1000.0,-99.12109375
1755830242.2283792,-49.31640625,-430.6640625,-1000.0,-179.6875
1755830242.2321315,-392.08984375,171.875,-999.0234375,-336.42578125
1755830242.235884,-370.60546875,100.09765625,-1000.0,-236.328125
1755830242.2373211,-100.5859375,-59.08203125,-1000.0,-186.03515625
1755830242.2387586,-64.94140625,202.63671875,-953.61328125,-260.7421875
1755830242.2401958,-288.57421875,305.6640625,-963.8671875,-297.36328125
1755830242.241633,-359.86328125,-30.76171875,-1000.0,-211.9140625
1755830242.2430704,-151.3671875,-271.97265625,-998.53515625,-142.578125
1755830242.2445076,6.8359375,-125.48828125,-1000.0,-166.015625
1755830242.2459447,-193.359375,98.6328125,-1000.0,-243.1640625
1755830242.2473822,-363.28125,-19.04296875,-998.046875,-206.54296875
1755830242.2488194,-173.33984375,-630.859375,-1000.0,-91.30859375
1755830242.2502563,-79.58984375,-145.5078125,-972.65625,-227.05078125
1755830242.251694,-178.22265625,502.9296875,-956.0546875,-274.4140625
1755830242.2531312,-286.62109375,-156.25,-994.62890625,-144.04296875
1755830242.2593105,-275.87890625,-436.03515625,-1000.0,-142.578125
1755830242.2654898,-141.6015625,300.29296875,-930.6640625,-229.4921875
1755830242.2716694,-92.28515625,578.125,-851.5625,-207.03125
1755830242.2778487,-224.12109375,-182.6171875,-973.14453125,-112.3046875
1755830242.284028,-312.98828125,-526.85546875,-1000.0,-126.46484375
1755830242.2902074,-154.296875,-11.71875,-994.62890625,-171.38671875
1755830242.2963867,-19.04296875,189.453125,-1000.0,-164.0625
1755830242.302566,-168.9453125,-251.46484375,-999.51171875,-140.13671875
1755830242.3087454,-362.3046875,-426.7578125,-1000.0,-173.33984375
1755830242.314925,-263.18359375,262.20703125,-1000.0,-232.421875
1755830242.3211043,-6.34765625,357.421875,-979.4921875,-161.1328125
1755830242.3272836,-149.4140625,212.40234375,-990.234375,-177.734375
1755830242.3298335,-398.4375,186.5234375,-1000.0,-213.8671875
1755830242.3323836,-280.76171875,236.81640625,-998.53515625,-174.8046875
1755830242.3349338,3.41796875,197.265625,-988.28125,-115.72265625
1755830242.337484,-41.9921875,3.90625,-994.62890625,-133.7890625
1755830242.340034,-337.40234375,38.57421875,-1000.0,-217.28515625
1755830242.342584,-316.40625,-86.42578125,-994.62890625,-180.17578125
1755830242.345134,-42.48046875,-272.4609375,-1000.0,-106.93359375
1755830242.347684,-44.43359375,-71.77734375,-963.37890625,-174.8046875
1755830242.3502345,-324.70703125,214.84375,-926.26953125,-275.87890625
1755830242.3527842,-399.90234375,250.9765625,-995.60546875,-235.83984375
1755830242.3553343,-79.1015625,-140.13671875,-1000.0,-72.265625
1755830242.3578844,48.33984375,-429.19921875,-973.14453125,-73.73046875
1755830242.361464,-281.73828125,83.984375,-920.41015625,-262.6953125
1755830242.365044,-429.6875,253.90625,-973.14453125,-246.58203125
1755830242.3686235,-148.4375,-306.640625,-1000.0,-70.3125
1755830242.372203,30.2734375,-351.5625,-934.5703125,-91.796875
1755830242.375783,-190.4296875,208.49609375,-878.90625,-229.4921875
1755830242.3793626,-338.8671875,-107.91015625,-990.234375,-158.69140625
1755830242.3829422,-239.74609375,-418.45703125,-1000.0,-113.28125
1755830242.386522,-38.57421875,-236.328125,-1000.0,-139.6484375
1755830242.3901017,-107.91015625,201.66015625,-913.0859375,-214.35546875
1755830242.3936813,-340.8203125,247.55859375,-917.48046875,-222.16796875
1755830242.3972611,-239.74609375,-556.640625,-1000.0,-59.5703125
1755830242.4008408,-35.64453125,-685.546875,-968.75,-78.125
1755830242.4047842,-101.07421875,308.59375,-793.9453125,-253.41796875
1755830242.408728,-245.1171875,285.15625,-824.70703125,-189.94140625
1755830242.4126716,-317.3828125,-129.8828125,-1000.0,-118.1640625
1755830242.416615,-156.25,115.72265625,-910.64453125,-120.1171875
1755830242.4205585,9.765625,409.66796875,-754.8828125,-134.27734375
1755830242.424502,-93.26171875,-78.125,-917.48046875,-84.9609375
1755830242.4284458,-299.8046875,-619.140625,-1000.0,-107.421875
1755830242.4323893,-257.32421875,-131.34765625,-970.21484375,-208.0078125
1755830242.4363327,-31.25,316.89453125,-833.984375,-165.52734375
1755830242.4402764,-59.08203125,-130.859375,-896.97265625,-90.33203125
1755830242.44422,-315.91796875,-536.1328125,-1000.0,-145.99609375
1755830242.4481635,-367.67578125,-25.87890625,-1000.0,-251.46484375
1755830242.453101,-92.7734375,378.41796875,-802.734375,-193.84765625
1755830242.4580383,-44.43359375,159.1796875,-795.41015625,-161.1328125
1755830242.4629755,-320.3125,-45.8984375,-1000.0,-229.4921875
1755830242.4679132,-399.90234375,102.05078125,-999.0234375,-255.859375
1755830242.4728506,-117.1875,137.6953125,-993.65234375,-168.9453125
1755830242.477788,11.23046875,-167.48046875,-1000.0,-111.81640625
1755830242.4827256,-274.4140625,-242.67578125,-1000.0,-199.70703125
1755830242.487663,-425.29296875,-22.94921875,-1000.0,-237.79296875
1755830242.4926004,-186.03515625,159.1796875,-999.51171875,-158.69140625
1755830242.497538,55.17578125,-305.6640625,-997.55859375,-53.22265625
1755830242.5024753,-168.9453125,-458.984375,-1000.0,-159.66796875
1755830242.507413,-433.10546875,-10.7421875,-994.140625,-241.2109375
1755830242.5099623,-227.05078125,-174.31640625,-1000.0,-119.62890625
1755830242.5125115,-26.3671875,-166.015625,-968.75,-130.37109375
1755830242.5150614,-171.38671875,140.625,-882.8125,-230.46875
1755830242.517611,-389.6484375,164.55078125,-968.26171875,-240.72265625
1755830242.5201604,-310.546875,-136.71875,-1000.0,-142.578125
1755830242.52271,-36.62109375,-324.70703125,-995.1171875,-79.1015625
1755830242.5252595,-78.125,-101.07421875,-1000.0,-186.03515625
1755830242.5278091,-355.46875,189.453125,-998.046875,-267.578125
1755830242.5303588,-320.3125,-171.38671875,-1000.0,-138.18359375
1755830242.5329084,-62.98828125,-434.08203125,-999.51171875,-71.77734375
1755830242.5354578,-46.38671875,120.1171875,-909.1796875,-187.01171875
1755830242.5380075,-243.1640625,315.91796875,-905.2734375,-224.609375
1755830242.5430467,-289.0625,-312.5,-1000.0,-114.74609375
1755830242.5480857,-143.06640625,-492.1875,-953.61328125,-91.30859375
1755830242.553125,-39.55078125,94.23828125,-880.37109375,-174.31640625
1755830242.558164,-149.90234375,143.5546875,-968.75,-169.43359375
1755830242.563203,-326.171875,-264.6484375,-1000.0,-139.16015625
1755830242.5682423,-213.8671875,-497.55859375,-1000.0,-98.14453125
1755830242.5732815,-42.96875,-41.015625,-979.4921875,-150.390625
1755830242.5783207,-105.46875,258.30078125,-959.9609375,-191.89453125
1755830242.58336,-255.859375,-416.9921875,-999.0234375,-103.515625
1755830242.588399,-304.19921875,-562.98828125,-1000.0,-140.13671875
1755830242.593438,-141.11328125,272.94921875,-956.54296875,-208.0078125
1755830242.5984774,-21.484375,200.68359375,-961.9140625,-140.625
1755830242.6021757,-272.4609375,-50.78125,-1000.0,-188.4765625
1755830242.6058743,-404.78515625,114.74609375,-1000.0,-222.16796875
1755830242.6095726,-158.69140625,341.30859375,-983.3984375,-176.7578125
1755830242.6132712,19.53125,270.5078125,-968.26171875,-127.9296875
1755830242.6169696,-184.5703125,46.875,-1000.0,-144.53125
1755830242.620668,-368.65234375,-81.0546875,-1000.0,-163.57421875
1755830242.6243663,-208.0078125,-7.32421875,-999.0234375,-153.80859375
1755830242.6280649,27.83203125,29.78515625,-1000.0,-123.046875
1755830242.6317637,-110.3515625,39.55078125,-998.046875,-163.57421875
1755830242.6354618,-394.04296875,229.00390625,-1000.0,-232.91015625
1755830242.6391604,-309.08203125,417.96875,-982.421875,-184.5703125
1755830242.6428587,24.90234375,236.81640625,-974.609375,-53.22265625
1755830242.645373,42.96875,-625.9765625,-1000.0,0.0
1755830242.647888,-372.0703125,-235.3515625,-998.53515625,-230.95703125
1755830242.6504023,-390.625,476.07421875,-993.65234375,-241.2109375
1755830242.6529174,-76.171875,379.39453125,-975.5859375,-117.1875
1755830242.655432,-31.73828125,504.8828125,-866.2109375,-138.671875
1755830242.6579466,-249.51171875,367.67578125,-928.7109375,-146.484375
1755830242.6604612,-344.7265625,34.1796875,-1000.0,-151.3671875
1755830242.6629758,-152.34375,9.27734375,-989.74609375,-150.87890625
1755830242.6654906,-30.76171875,233.88671875,-968.75,-188.4765625
1755830242.6680052,-229.4921875,416.50390625,-957.51953125,-249.51171875
1755830242.6705198,-399.90234375,452.63671875,-990.234375,-233.3984375
1755830242.6730344,-129.8828125,-289.0625,-1000.0,-37.109375
1755830242.6803532,19.04296875,-385.7421875,-963.37890625,-87.40234375
1755830242.687672,-215.33203125,624.0234375,-802.734375,-299.31640625
1755830242.6949909,-352.05078125,466.30859375,-881.34765625,-202.1484375
1755830242.7023096,-277.83203125,184.08203125,-1000.0,-133.30078125
1755830242.7096283,-76.171875,537.109375,-826.171875,-155.76171875
1755830242.716947,-59.5703125,417.48046875,-887.20703125,-148.92578125
1755830242.724266,-274.90234375,-26.85546875,-1000.0,-137.20703125
1755830242.7315848,-330.078125,-351.07421875,-1000.0,-132.32421875
1755830242.7389035,-170.41015625,158.203125,-924.31640625,-189.94140625
1755830242.7462225,-55.6640625,631.8359375,-796.875,-177.24609375
1755830242.7535412,-226.07421875,222.16796875,-912.109375,-164.0625
1755830242.76086,-345.21484375,-124.51171875,-1000.0,-158.69140625
1755830242.761213,-187.01171875,184.5703125,-990.234375,-157.2265625
1755830242.7615662,-36.62109375,572.75390625,-851.5625,-164.0625
1755830242.761919,-114.74609375,53.22265625,-901.3671875,-98.14453125
1755830242.762272,-349.609375,-244.62890625,-1000.0,-141.11328125
1755830242.7626252,-279.78515625,321.77734375,-936.03515625,-190.91796875
1755830242.7629783,5.37109375,372.55859375,-954.58984375,-110.83984375
1755830242.7633314,-21.97265625,-276.85546875,-1000.0,-59.5703125
1755830242.7636845,-316.89453125,-559.5703125,-1000.0,-149.90234375
1755830242.7640376,-381.8359375,234.375,-989.74609375,-264.16015625
1755830242.7643905,-54.6875,474.12109375,-961.42578125,-148.4375
1755830242.7647436,-25.390625,219.23828125,-980.46875,-121.58203125
1755830242.765097,-327.1484375,291.015625,-975.5859375,-203.61328125
1755830242.7710457,-361.328125,411.1328125,-997.0703125,-191.40625
1755830242.776995,-67.3828125,352.5390625,-979.98046875,-95.21484375
1755830242.782944,48.33984375,69.3359375,-981.4453125,-75.68359375
1755830242.7888932,-244.62890625,169.921875,-996.58203125,-206.54296875
1755830242.7948422,-392.578125,357.91015625,-989.74609375,-192.3828125
1755830242.8007913,-121.09375,124.0234375,-999.0234375,-54.19921875
1755830242.8067403,125.0,-544.921875,-1000.0,19.53125
1755830242.8126895,-167.96875,-322.75390625,-967.28515625,-172.8515625
1755830242.8186388,-446.2890625,444.3359375,-958.0078125,-265.625
1755830242.8245878,-228.02734375,170.41015625,-1000.0,-111.81640625
1755830242.830537,-7.8125,233.88671875,-919.43359375,-113.76953125
1755830242.836486,-108.88671875,529.296875,-800.29296875,-177.24609375
1755830242.840353,-328.61328125,388.671875,-932.12890625,-179.6875
1755830242.84422,-280.76171875,90.8203125,-1000.0,-106.93359375
1755830242.8480868,-47.8515625,141.6015625,-982.91015625,-98.6328125
1755830242.851954,-36.62109375,479.00390625,-875.9765625,-152.83203125
1755830242.855821,-244.140625,349.12109375,-907.71484375,-138.18359375
1755830242.8596878,-296.38671875,-126.953125,-1000.0,-86.42578125
1755830242.8635547,-95.703125,-192.3828125,-1000.0,-74.21875
1755830242.8674216,-9.765625,218.75,-985.83984375,-132.8125
1755830242.8712888,-198.73046875,320.3125,-972.16796875,-164.55078125
1755830242.8751557,-344.7265625,-15.625,-999.51171875,-146.97265625
1755830242.8790226,-190.91796875,84.47265625,-1000.0,-145.5078125
1755830242.8828895,4.39453125,453.61328125,-888.671875,-134.765625
1755830242.8854125,-96.6796875,375.9765625,-886.71875,-126.953125
1755830242.8879354,-266.11328125,-334.9609375,-1000.0,-79.1015625
1755830242.8904586,-245.1171875,-288.0859375,-1000.0,-139.16015625
1755830242.8929815,-43.45703125,471.6796875,-883.30078125,-177.24609375
1755830242.8955045,-18.06640625,345.21484375,-845.703125,-107.421875
1755830242.8980274,-238.76953125,-209.9609375,-1000.0,-105.95703125
1755830242.9005504,-320.3125,-78.125,-1000.0,-175.78125
1755830242.9030733,-98.6328125,360.3515625,-883.30078125,-163.57421875
1755830242.9055965,30.76171875,84.47265625,-894.04296875,-99.609375
1755830242.9081194,-231.4453125,-106.4453125,-1000.0,-168.45703125
1755830242.9106424,-388.671875,201.171875,-980.95703125,-222.65625
1755830242.913165,-153.80859375,378.41796875,-905.76171875,-173.33984375
1755830242.9168987,88.37890625,17.08984375,-901.85546875,-62.01171875
1755830242.920632,-110.3515625,-690.4296875,-1000.0,-75.1953125
1755830242.9243655,-451.66015625,-140.625,-987.79296875,-266.6015625
1755830242.928099,-231.4453125,366.69921875,-911.62109375,-198.73046875
1755830242.9318323,-2.9296875,210.9375,-890.13671875,-132.32421875
1755830242.9355657,-163.57421875,46.875,-943.84765625,-172.8515625
1755830242.939299,-375.48828125,-12.20703125,-1000.0,-201.66015625
1755830242.9430325,-324.21875,229.00390625,-954.1015625,-195.3125
1755830242.946766,4.8828125,-220.21484375,-964.84375,-76.171875
1755830242.9504993,-78.61328125,-334.9609375,-933.10546875,-145.5078125
1755830242.9542327,-414.55078125,220.703125,-881.8359375,-266.11328125
1755830242.957966,-368.65234375,-34.66796875,-1000.0,-205.56640625
1755830242.962994,-148.4375,-30.76171875,-937.98828125,-203.61328125
1755830242.9680214,-103.515625,350.5859375,-727.05078125,-253.90625
1755830242.9730492,-329.58984375,410.64453125,-741.69921875,-303.22265625
1755830242.978077,-407.71484375,169.921875,-878.41796875,-259.765625
1755830242.9831045,-175.78125,-48.33984375,-942.87109375,-198.73046875
1755830242.9881322,-53.7109375,48.33984375,-875.9765625,-250.48828125
1755830242.99316,-284.66796875,284.66796875,-784.66796875,-331.0546875
1755830242.9981875,-414.0625,50.29296875,-883.30078125,-265.625
1755830243.0032153,-233.88671875,-422.8515625,-993.1640625,-183.59375
1755830243.008243,-131.8359375,205.078125,-703.125,-292.48046875
1755830243.0132706,-181.15234375,507.8125,-564.453125,-293.9453125
1755830243.0182984,-347.16796875,41.50390625,-880.37109375,-240.72265625
1755830243.0219133,-312.01171875,97.16796875,-910.64453125,-244.140625
1755830243.0255284,-67.87109375,311.5234375,-714.35546875,-187.01171875
1755830243.029143,-57.12890625,241.2109375,-771.97265625,-169.43359375
1755830243.0327585,-261.71875,-161.1328125,-923.828125,-180.17578125
1755830243.0363734,-323.2421875,-186.5234375,-958.49609375,-187.01171875
1755830243.0399885,-95.703125,138.671875,-941.89453125,-166.015625
1755830243.0436034,28.80859375,99.12109375,-939.453125,-135.7421875
1755830243.0472183,-208.49609375,12.6953125,-938.96484375,-186.03515625
1755830243.0508337,-362.79296875,72.75390625,-941.40625,-202.1484375
1755830243.0544484,-158.69140625,262.20703125,-857.421875,-149.90234375
1755830243.0580635,47.36328125,396.484375,-740.234375,-114.2578125
1755830243.0616784,-44.921875,-277.83203125,-874.0234375,-57.6171875
1755830243.0642972,-314.94140625,-463.37890625,-1000.0,-137.20703125
1755830243.066916,-254.39453125,295.8984375,-828.125,-179.6875
1755830243.0695348,47.8515625,269.04296875,-749.51171875,-75.68359375
1755830243.0721538,-27.34375,71.2890625,-885.7421875,-103.02734375
1755830243.0747726,-285.15625,-49.31640625,-936.5234375,-142.08984375
1755830243.0773914,-235.3515625,-180.6640625,-992.67578125,-103.515625
1755830243.0800102,44.43359375,-167.48046875,-1000.0,-51.7578125
1755830243.082629,91.30859375,-623.046875,-997.55859375,-27.83203125
1755830243.085248,-257.8125,-406.73828125,-981.93359375,-180.6640625
1755830243.0878668,-342.7734375,209.47265625,-895.99609375,-198.2421875
1755830243.0904856,-14.16015625,-9.765625,-910.64453125,-35.64453125
1755830243.0931044,101.07421875,-82.03125,-873.53515625,-34.66796875
1755830243.097884,-184.5703125,250.9765625,-765.625,-156.25
1755830243.1026638,-311.03515625,140.625,-882.32421875,-115.234375
1755830243.107443,-95.703125,-41.9921875,-968.26171875,-47.8515625
1755830243.1122231,68.84765625,166.9921875,-792.48046875,-87.40234375
1755830243.1170027,-67.3828125,240.234375,-737.3046875,-121.58203125
1755830243.1217823,-246.09375,-96.19140625,-978.02734375,-106.4453125
1755830243.126562,-101.5625,-601.5625,-1000.0,-27.83203125
1755830243.1313417,91.30859375,-568.84765625,-958.0078125,-35.64453125
1755830243.1361215,-50.78125,138.18359375,-850.09765625,-168.45703125
1755830243.140901,-243.1640625,175.78125,-889.6484375,-142.08984375
1755830243.145681,-211.42578125,-231.4453125,-1000.0,-68.359375
1755830243.1504605,-21.484375,7.32421875,-872.55859375,-95.21484375
1755830243.15433,11.71875,490.234375,-636.23046875,-145.99609375
1755830243.1581995,-174.31640625,163.0859375,-826.171875,-121.58203125
1755830243.1620688,-258.7890625,-192.3828125,-1000.0,-96.6796875
1755830243.1659384,-91.30859375,134.27734375,-913.0859375,-119.140625
1755830243.169808,50.78125,330.078125,-808.10546875,-98.14453125
1755830243.1736774,-92.28515625,-99.609375,-960.9375,-68.84765625
1755830243.177547,-283.69140625,-568.359375,-1000.0,-106.93359375
1755830243.1814165,-195.3125,-186.5234375,-1000.0,-167.48046875
1755830243.185286,8.7890625,362.3046875,-887.20703125,-135.7421875
1755830243.189155,-71.77734375,108.88671875,-849.609375,-105.46875
1755830243.1930249,-284.1796875,-342.28515625,-1000.0,-120.60546875
1755830243.1968944,-243.1640625,-166.50390625,-1000.0,-142.08984375
1755830243.2007923,-21.484375,289.0625,-893.06640625,-125.0
1755830243.2046905,20.01953125,9.27734375,-872.55859375,-74.21875
1755830243.2085884,-236.328125,-320.80078125,-1000.0,-129.39453125
1755830243.2124865,-319.82421875,55.17578125,-1000.0,-182.6171875
1755830243.2163844,-33.69140625,207.03125,-874.51171875,-87.890625
1755830243.2202826,68.359375,-0.9765625,-889.6484375,-66.89453125
1755830243.2241805,-163.57421875,-239.74609375,-1000.0,-133.30078125
1755830243.2280784,-298.828125,-79.1015625,-1000.0,-153.3203125
1755830243.2319765,-75.68359375,193.359375,-884.765625,-97.65625
1755830243.2358744,114.2578125,-92.28515625,-886.71875,-52.734375
1755830243.2397726,-125.48828125,-101.07421875,-886.71875,-159.66796875
1755830243.2436705,-353.02734375,267.08984375,-783.203125,-225.09765625
1755830243.24754,-140.13671875,155.76171875,-828.125,-113.28125
1755830243.2514093,121.58203125,38.57421875,-844.23828125,-49.31640625
1755830243.2552788,-42.48046875,234.86328125,-658.203125,-130.37109375
1755830243.2591484,-282.71484375,339.35546875,-618.1640625,-157.2265625
1755830243.2630177,-156.25,76.66015625,-811.5234375,-56.15234375
1755830243.2668872,106.93359375,-236.81640625,-932.6171875,0.9765625
1755830243.2707567,17.08984375,82.51953125,-668.9453125,-128.90625
1755830243.274626,-257.32421875,439.94140625,-511.71875,-207.51953125
1755830243.2784956,-215.33203125,66.40625,-787.59765625,-112.3046875
1755830243.282365,41.9921875,-480.46875,-995.60546875,-53.7109375
1755830243.2862344,0.9765625,85.9375,-680.17578125,-196.2890625
1755830243.290104,-219.7265625,530.2734375,-475.09765625,-244.62890625
1755830243.294927,-275.87890625,116.2109375,-835.9375,-147.94921875
1755830243.29975,-67.87109375,138.18359375,-890.625,-101.07421875
1755830243.3045728,69.3359375,564.94140625,-512.6953125,-124.51171875
1755830243.3093958,-65.91796875,558.59375,-487.79296875,-132.32421875
1755830243.3142188,-209.47265625,29.78515625,-834.47265625,-96.6796875
1755830243.3190415,-83.984375,-197.75390625,-1000.0,-73.2421875
1755830243.3238645,113.28125,78.125,-936.5234375,-103.02734375
1755830243.3286874,-0.9765625,484.86328125,-699.70703125,-194.3359375
1755830243.3335104,-110.83984375,-158.203125,-842.28515625,-86.9140625
1755830243.3383334,-92.28515625,-755.859375,-1000.0,-73.2421875
1755830243.3431563,-3.41796875,333.0078125,-687.5,-232.421875
1755830243.3479793,105.46875,744.62890625,-471.19140625,-172.36328125
1755830243.3516147,-98.14453125,376.46484375,-696.2890625,-150.390625
1755830243.3552504,-193.84765625,364.2578125,-744.140625,-165.52734375
1755830243.3588858,42.48046875,597.16796875,-513.18359375,-138.18359375
1755830243.3625212,193.359375,581.0546875,-444.82421875,-110.3515625
1755830243.3661566,-7.8125,251.953125,-697.75390625,-109.86328125
1755830243.369792,-148.92578125,-21.97265625,-993.65234375,-99.12109375
1755830243.3734276,17.578125,244.140625,-791.9921875,-110.3515625
1755830243.377063,237.3046875,327.1484375,-654.296875,-79.1015625
1755830243.3806984,100.5859375,136.23046875,-825.1953125,-101.07421875
1755830243.384334,-172.8515625,405.76171875,-672.8515625,-187.5
1755830243.3879695,-31.73828125,572.265625,-523.92578125,-150.87890625
1755830243.391605,302.734375,328.61328125,-616.69921875,-28.80859375
1755830243.394226,293.9453125,-372.0703125,-979.00390625,-28.3203125
1755830243.3968472,-71.77734375,29.296875,-833.49609375,-226.07421875
1755830243.3994684,-50.29296875,584.47265625,-598.6328125,-191.89453125
1755830243.4020894,240.234375,474.12109375,-649.4140625,-98.14453125
1755830243.4047103,260.25390625,500.0,-604.98046875,-132.32421875
1755830243.4073317,24.4140625,390.13671875,-689.453125,-168.45703125
1755830243.4099529,-49.8046875,191.89453125,-903.80859375,-155.76171875
1755830243.412574,203.125,49.31640625,-934.5703125,-96.6796875
1755830243.415195,278.80859375,388.18359375,-639.16015625,-145.01953125
1755830243.4178162,52.24609375,728.02734375,-411.62109375,-178.22265625
1755830243.420437,-70.3125,447.265625,-632.32421875,-118.65234375
1755830243.4230585,162.59765625,-52.24609375,-932.6171875,-29.296875
1755830243.4291368,330.56640625,283.69140625,-670.41015625,-92.7734375
1755830243.435215,172.36328125,987.79296875,-233.88671875,-179.6875
1755830243.441293,40.52734375,653.80859375,-498.53515625,-80.078125
1755830243.4473712,180.17578125,413.57421875,-761.71875,-35.64453125
1755830243.4534495,415.52734375,817.87109375,-455.56640625,-84.9609375
1755830243.4595275,382.32421875,824.70703125,-359.375,-107.91015625
1755830243.4656055,182.6171875,363.28125,-699.21875,-84.47265625
1755830243.471684,212.890625,-42.48046875,-930.17578125,-71.2890625
1755830243.4777622,374.0234375,530.2734375,-523.4375,-172.8515625
1755830243.4838405,453.125,999.51171875,-64.453125,-143.06640625
1755830243.4899185,346.6796875,557.6171875,-465.8203125,-40.0390625
1755830243.4959967,251.46484375,274.90234375,-727.05078125,-63.4765625
1755830243.4975288,444.82421875,732.421875,-328.61328125,-40.52734375
1755830243.4990606,601.07421875,647.4609375,-282.71484375,22.94921875
1755830243.5005927,389.16015625,115.72265625,-637.20703125,-4.39453125
1755830243.5021248,174.31640625,-10.7421875,-776.85546875,-74.21875
1755830243.5036566,293.45703125,345.703125,-485.3515625,-122.55859375
1755830243.5051887,527.83203125,229.98046875,-462.890625,-41.9921875
1755830243.5067208,360.83984375,-32.71484375,-691.40625,-54.6875
1755830243.5082526,24.90234375,121.09375,-698.73046875,-175.78125
1755830243.5097847,79.58984375,504.39453125,-436.03515625,-168.45703125
1755830243.5113168,404.78515625,678.7109375,-264.6484375,-69.82421875
1755830243.5128486,497.0703125,-26.85546875,-677.24609375,20.5078125
1755830243.5143807,197.265625,-196.2890625,-835.44921875,-60.05859375
1755830243.5204427,120.1171875,512.6953125,-417.96875,-96.6796875
1755830243.526505,505.859375,547.36328125,-334.47265625,33.69140625
1755830243.532567,685.05859375,529.78515625,-301.26953125,34.66796875
1755830243.538629,455.078125,679.19921875,-191.89453125,-26.3671875
1755830243.544691,341.796875,520.01953125,-336.9140625,-34.1796875
1755830243.5507534,645.5078125,422.36328125,-391.6015625,6.34765625
1755830243.5568154,891.11328125,-24.4140625,-710.9375,115.234375
1755830243.5628777,626.953125,170.8984375,-585.44921875,-5.37109375
1755830243.5689397,321.2890625,880.37109375,1.46484375,-118.65234375
1755830243.5750017,532.71484375,759.765625,-95.703125,17.08984375
1755830243.581064,856.4453125,811.5234375,-29.78515625,110.3515625
1755830243.587126,696.77734375,983.88671875,265.13671875,60.546875
1755830243.589711,393.5546875,982.421875,237.79296875,29.78515625
1755830243.592296,518.06640625,831.0546875,-36.1328125,101.5625
1755830243.5948808,798.828125,859.375,45.41015625,121.58203125
1755830243.5974658,782.71484375,986.81640625,345.703125,69.3359375
1755830243.6000507,466.796875,988.28125,266.11328125,39.55078125
1755830243.6026356,420.41015625,767.08984375,-111.81640625,85.44921875
1755830243.6052206,688.96484375,706.0546875,-199.70703125,107.421875
1755830243.6078055,747.55859375,955.56640625,57.6171875,64.453125
1755830243.6103904,464.84375,973.6328125,143.06640625,21.484375
1755830243.6129754,184.5703125,776.3671875,-138.671875,-0.9765625
1755830243.6155603,347.16796875,839.35546875,-91.30859375,18.5546875
1755830243.6181452,558.59375,982.91015625,301.26953125,59.5703125
1755830243.621893,357.91015625,999.51171875,245.1171875,54.6875
1755830243.6256409,113.28125,309.08203125,-574.70703125,124.51171875
1755830243.6293888,172.36328125,291.015625,-726.5625,62.98828125
1755830243.6331365,363.76953125,999.51171875,41.9921875,-36.62109375
1755830243.6368842,336.9140625,927.24609375,47.8515625,39.55078125
1755830243.6406322,61.5234375,635.25390625,-458.984375,34.66796875
1755830243.64438,-46.38671875,737.79296875,-542.48046875,-55.17578125
1755830243.6481278,139.16015625,999.51171875,-59.08203125,-88.8671875
1755830243.6518755,224.12109375,878.41796875,-17.08984375,14.16015625
1755830243.6556234,-53.22265625,497.55859375,-675.78125,35.15625
1755830243.6593714,-320.80078125,758.7890625,-576.171875,-122.55859375
1755830243.663119,-99.609375,999.51171875,-124.0234375,-95.703125
1755830243.6668775,111.328125,826.66015625,-330.078125,-3.90625
1755830243.6706364,-208.49609375,799.31640625,-517.08984375,-118.1640625
1755830243.674395,-468.26171875,983.3984375,-295.8984375,-217.7734375
1755830243.6781538,-208.49609375,972.16796875,-301.26953125,-148.4375
1755830243.6819124,67.87109375,934.5703125,-435.546875,-77.63671875
1755830243.685671,-120.1171875,804.19921875,-644.04296875,-149.4140625
1755830243.6894298,-485.83984375,800.78125,-647.4609375,-286.1328125
1755830243.6931884,-395.5078125,999.51171875,-406.25,-267.08984375
1755830243.696947,-32.71484375,604.98046875,-675.29296875,-118.65234375
1755830243.7007058,-173.828125,482.421875,-788.0859375,-188.96484375
1755830243.7044644,-552.734375,999.51171875,-448.73046875,-320.3125
1755830243.708223,-524.4140625,923.828125,-599.12109375,-230.46875
1755830243.7120748,-229.4921875,754.8828125,-707.03125,-156.25
1755830243.7159266,-188.4765625,882.32421875,-490.234375,-195.3125
1755830243.7197783,-485.3515625,999.51171875,-417.96875,-247.55859375
1755830243.72363,-581.0546875,844.7265625,-646.484375,-195.80078125
1755830243.7274818,-250.0,567.87109375,-806.640625,-97.65625
1755830243.7313335,-62.5,772.4609375,-624.0234375,-98.6328125
1755830243.7351851,-333.984375,999.51171875,-417.48046875,-174.8046875
1755830243.739037,-515.625,813.96484375,-615.72265625,-140.13671875
1755830243.7428887,-281.25,459.9609375,-884.765625,-82.03125
1755830243.7467403,-85.9375,851.5625,-291.015625,-160.64453125
1755830243.7505922,-218.75,999.51171875,358.3984375,-169.43359375
1755830243.754444,-498.046875,877.9296875,188.4765625,-160.15625
1755830243.759272,-450.1953125,905.2734375,-60.05859375,-167.96875
1755830243.7641,-134.765625,966.30859375,33.203125,-117.1875
1755830243.7689283,-125.48828125,999.51171875,21.484375,-104.4921875
1755830243.7737565,-361.328125,704.1015625,-400.87890625,-75.1953125
1755830243.7785845,-366.2109375,657.2265625,-461.42578125,-49.8046875
1755830243.7834125,-26.85546875,966.30859375,-123.53515625,-4.39453125
1755830243.788241,83.49609375,999.51171875,45.8984375,-31.25
1755830243.793069,-111.81640625,601.5625,-386.23046875,5.859375
1755830243.7978969,-237.3046875,351.07421875,-825.1953125,14.16015625
1755830243.802725,-52.24609375,969.23828125,-73.2421875,-71.2890625
1755830243.807553,270.99609375,989.2578125,342.7734375,20.01953125
1755830243.8123813,59.08203125,938.96484375,163.57421875,-6.34765625
1755830243.8160653,-205.078125,970.703125,84.47265625,-32.71484375
1755830243.8197496,-10.25390625,970.21484375,137.20703125,4.39453125
1755830243.823434,284.1796875,965.33203125,121.58203125,56.640625
1755830243.827118,145.5078125,960.9375,53.7109375,24.90234375
1755830243.830802,-163.0859375,958.984375,-48.828125,-26.3671875
1755830243.8344862,-82.03125,986.81640625,-144.53125,16.11328125
1755830243.8381703,219.7265625,919.43359375,-199.21875,78.61328125
1755830243.8418546,195.3125,861.328125,-195.3125,68.84765625
1755830243.8455386,-138.18359375,951.66015625,64.94140625,-13.671875
1755830243.849223,-179.6875,999.51171875,219.7265625,2.9296875
1755830243.8529072,202.1484375,901.85546875,114.2578125,157.2265625
1755830243.8565912,374.51171875,666.9921875,-378.90625,251.46484375
1755830243.8592186,7.8125,886.71875,-97.16796875,85.44921875
1755830243.8618455,-133.7890625,999.51171875,277.34375,95.21484375
1755830243.864473,154.78515625,950.68359375,160.64453125,183.10546875
1755830243.8671005,363.76953125,971.6796875,367.1875,192.3828125
1755830243.8697276,254.39453125,966.30859375,470.703125,235.83984375
1755830243.872355,125.9765625,974.609375,381.34765625,295.8984375
1755830243.8749824,407.2265625,934.5703125,95.703125,422.8515625
1755830243.8776095,746.58203125,931.15234375,325.68359375,421.875
1755830243.8802369,662.109375,971.6796875,991.2109375,329.58984375
1755830243.8828642,408.69140625,979.4921875,955.078125,365.72265625
1755830243.8854914,391.6015625,881.34765625,366.69921875,403.3203125
1755830243.8881187,542.48046875,893.06640625,431.640625,309.08203125
1755830243.893056,458.49609375,986.81640625,999.51171875,189.453125
1755830243.897993,173.828125,959.9609375,857.91015625,183.59375
1755830243.9029305,-4.8828125,954.58984375,499.0234375,133.7890625
1755830243.9078677,108.3984375,941.89453125,584.9609375,62.5
1755830243.9128048,182.12890625,999.51171875,694.3359375,22.94921875
1755830243.917742,-107.421875,904.296875,283.203125,-0.9765625
1755830243.9226792,-395.99609375,379.39453125,-455.56640625,-42.48046875
1755830243.9276164,-358.3984375,641.6015625,-317.3828125,-177.734375
1755830243.9325538,-165.52734375,999.51171875,182.12890625,-200.1953125
1755830243.937491,-256.34765625,776.85546875,-72.75390625,-126.953125
1755830243.942428,-479.00390625,595.21484375,-414.0625,-114.2578125
1755830243.9473653,-392.08984375,869.62890625,-215.8203125,-145.01953125
1755830243.9536147,-89.84375,961.42578125,-61.03515625,-91.30859375
1755830243.9598644,-119.62890625,392.578125,-468.75,-30.76171875
1755830243.966114,-439.453125,224.609375,-669.43359375,-103.515625
1755830243.9723637,-453.61328125,745.60546875,-321.77734375,-172.8515625
1755830243.978613,-126.46484375,841.30859375,-187.98828125,-83.0078125
1755830243.9848626,-14.6484375,429.19921875,-427.734375,-20.01953125
1755830243.9911122,-306.640625,186.5234375,-615.72265625,-77.63671875
1755830243.9973617,-441.89453125,403.3203125,-508.30078125,-109.86328125
1755830244.003611,-144.53125,625.48828125,-310.546875,-67.3828125
1755830244.0098608,57.12890625,198.73046875,-502.9296875,-3.90625
1755830244.0161104,-263.671875,71.2890625,-580.078125,-121.09375
1755830244.0223598,-528.3203125,438.4765625,-356.4453125,-176.26953125
1755830244.0236497,-301.7578125,260.25390625,-449.21875,-74.70703125
1755830244.0249398,-79.1015625,94.7265625,-527.34375,-78.125
1755830244.0262296,-306.640625,175.29296875,-439.453125,-149.90234375
1755830244.0275197,-575.68359375,-44.921875,-580.078125,-151.3671875
1755830244.0288095,-463.37890625,-313.96484375,-795.8984375,-123.046875
1755830244.0300994,-233.3984375,-682.6171875,-926.7578125,-124.51171875
1755830244.0313897,-371.58203125,-526.3671875,-808.10546875,-243.65234375
1755830244.032679,-695.80078125,-16.6015625,-587.40234375,-323.73046875
1755830244.0339694,-662.59765625,-451.171875,-823.2421875,-261.23046875
1755830244.0352592,-411.1328125,-695.80078125,-950.1953125,-250.9765625
1755830244.036549,-414.0625,-276.3671875,-794.43359375,-325.68359375
1755830244.0378392,-693.359375,-322.75390625,-898.92578125,-347.16796875
1755830244.0426743,-821.77734375,-794.43359375,-1000.0,-326.66015625
1755830244.04751,-666.9921875,-826.66015625,-995.60546875,-339.84375
1755830244.0523453,-521.484375,-503.90625,-999.0234375,-376.46484375
1755830244.0571806,-709.9609375,-626.46484375,-1000.0,-404.296875
1755830244.062016,-888.671875,-910.64453125,-1000.0,-323.2421875
1755830244.0668514,-759.765625,-1000.0,-1000.0,-326.66015625
1755830244.0716867,-616.2109375,-982.91015625,-1000.0,-442.87109375
1755830244.076522,-736.328125,-998.53515625,-1000.0,-452.63671875
1755830244.0813577,-973.14453125,-994.62890625,-1000.0,-394.53125
1755830244.0861928,-957.03125,-1000.0,-1000.0,-418.45703125
1755830244.0910282,-709.9609375,-839.35546875,-1000.0,-490.72265625
1755830244.0958636,-537.109375,-750.48828125,-1000.0,-371.58203125
1755830244.098519,-742.67578125,-983.88671875,-1000.0,-337.40234375
1755830244.1011753,-765.13671875,-961.9140625,-1000.0,-350.5859375
1755830244.103831,-426.7578125,-688.4765625,-1000.0,-288.0859375
1755830244.1064868,-210.9375,-656.25,-1000.0,-220.21484375
1755830244.1091423,-382.32421875,-895.5078125,-1000.0,-219.23828125
1755830244.1117983,-550.78125,-1000.0,-1000.0,-222.65625
1755830244.1144545,-315.91796875,-850.5859375,-999.51171875,-216.30859375
1755830244.11711,-20.01953125,-628.41796875,-992.1875,-149.90234375
1755830244.1197658,-136.71875,-911.62109375,-995.60546875,-103.02734375
1755830244.1224215,-449.21875,-1000.0,-1000.0,-207.03125
1755830244.1250775,-346.6796875,-668.9453125,-984.86328125,-234.86328125
1755830244.1277332,15.625,-628.41796875,-978.02734375,-112.79296875
1755830244.131496,-71.2890625,-846.6796875,-954.1015625,-136.23046875
1755830244.1352584,-531.73828125,-540.0390625,-868.1640625,-333.0078125
1755830244.1390212,-504.8828125,-500.9765625,-923.33984375,-304.6875
1755830244.142784,-184.08203125,-703.61328125,-973.6328125,-238.28125
1755830244.1465464,-188.96484375,-689.453125,-936.03515625,-285.15625
1755830244.150309,-503.90625,-819.82421875,-975.09765625,-327.1484375
1755830244.1540718,-677.24609375,-1000.0,-1000.0,-346.6796875
1755830244.1578343,-384.765625,-1000.0,-997.0703125,-268.06640625
1755830244.161597,-268.5546875,-859.86328125,-999.51171875,-290.52734375
1755830244.1653595,-643.5546875,-642.08984375,-998.53515625,-421.875
1755830244.1691222,-832.51953125,-806.640625,-1000.0,-415.0390625
1755830244.172885,-609.375,-983.3984375,-1000.0,-380.859375
1755830244.1778517,-390.13671875,-937.5,-1000.0,-352.5390625
1755830244.1828182,-590.33203125,-822.265625,-1000.0,-390.625
1755830244.187785,-842.28515625,-936.03515625,-1000.0,-395.01953125
1755830244.1927514,-739.2578125,-1000.0,-1000.0,-368.1640625
1755830244.197718,-508.7890625,-937.5,-1000.0,-396.484375
1755830244.2026846,-546.875,-967.28515625,-1000.0,-390.13671875
1755830244.2076511,-811.5234375,-1000.0,-1000.0,-366.69921875
1755830244.212618,-814.453125,-1000.0,-1000.0,-364.74609375
1755830244.2175846,-579.1015625,-913.57421875,-1000.0,-437.98828125
1755830244.222551,-443.84765625,-813.4765625,-1000.0,-410.64453125
1755830244.2275176,-630.37109375,-935.05859375,-1000.0,-343.26171875
1755830244.2324843,-792.96875,-1000.0,-1000.0,-371.09375
1755830244.236211,-537.109375,-963.8671875,-1000.0,-348.6328125
1755830244.2399378,-325.1953125,-822.75390625,-1000.0,-297.36328125
1755830244.2436645,-550.78125,-893.5546875,-1000.0,-312.98828125
1755830244.247391,-761.71875,-1000.0,-1000.0,-346.19140625
1755830244.2511177,-562.5,-989.2578125,-1000.0,-327.1484375
1755830244.2548444,-262.20703125,-995.1171875,-1000.0,-280.76171875
1755830244.2585711,-328.125,-992.67578125,-1000.0,-216.30859375
1755830244.262298,-642.08984375,-1000.0,-1000.0,-293.9453125
1755830244.2660246,-646.97265625,-874.0234375,-1000.0,-405.76171875
1755830244.269751,-281.73828125,-680.17578125,-1000.0,-294.43359375
1755830244.2734778,-208.984375,-883.7890625,-1000.0,-194.3359375
1755830244.2772045,-556.640625,-1000.0,-1000.0,-258.30078125
1755830244.2809498,-638.18359375,-973.6328125,-1000.0,-314.453125
1755830244.2846951,-301.7578125,-966.796875,-1000.0,-219.23828125
1755830244.2884402,-188.4765625,-950.1953125,-1000.0,-189.94140625
1755830244.2921855,-511.23046875,-903.3203125,-1000.0,-275.390625
1755830244.2959309,-661.1328125,-978.02734375,-1000.0,-286.1328125
1755830244.299676,-340.8203125,-1000.0,-1000.0,-196.77734375
1755830244.3034213,-164.0625,-996.58203125,-1000.0,-164.0625
1755830244.3071666,-450.68359375,-1000.0,-1000.0,-236.81640625
1755830244.310912,-697.75390625,-996.09375,-1000.0,-287.59765625
1755830244.3146572,-465.33203125,-1000.0,-1000.0,-175.78125
1755830244.3184023,-158.69140625,-999.51171875,-1000.0,-97.65625
1755830244.3221476,-371.09375,-866.69921875,-1000.0,-247.55859375
1755830244.3259208,-641.11328125,-869.62890625,-1000.0,-271.97265625
1755830244.329694,-528.3203125,-1000.0,-1000.0,-189.94140625
1755830244.3334672,-247.55859375,-912.109375,-1000.0,-161.1328125
1755830244.3372405,-257.8125,-765.625,-1000.0,-192.3828125
1755830244.3410137,-527.83203125,-885.7421875,-1000.0,-218.75
1755830244.3447871,-565.4296875,-1000.0,-1000.0,-183.10546875
1755830244.3485603,-288.57421875,-979.4921875,-1000.0,-168.45703125
1755830244.3523335,-218.26171875,-842.28515625,-1000.0,-201.66015625
1755830244.3561068,-500.48828125,-875.48828125,-1000.0,-211.9140625
1755830244.35988,-539.0625,-1000.0,-1000.0,-116.2109375
1755830244.3636532,-319.82421875,-988.28125,-1000.0,-129.39453125
1755830244.3674264,-201.171875,-750.9765625,-1000.0,-231.4453125
1755830244.371234,-316.40625,-743.1640625,-1000.0,-159.1796875
1755830244.3750415,-521.97265625,-1000.0,-1000.0,-151.3671875
1755830244.378849,-407.71484375,-844.23828125,-1000.0,-181.15234375
1755830244.3826566,-106.4453125,-516.11328125,-1000.0,-146.484375
1755830244.386464,-138.18359375,-646.97265625,-1000.0,-123.53515625
1755830244.3902717,-402.34375,-996.58203125,-1000.0,-118.65234375
1755830244.3940792,-417.48046875,-964.84375,-1000.0,-157.2265625
1755830244.3978868,-145.99609375,-613.28125,-1000.0,-165.0390625
1755830244.4016943,-40.52734375,-640.13671875,-1000.0,-90.8203125
1755830244.4055018,-345.21484375,-977.5390625,-1000.0,-106.93359375
1755830244.4093094,-512.6953125,-808.10546875,-1000.0,-210.44921875
1755830244.413117,-168.9453125,-577.1484375,-1000.0,-135.7421875
1755830244.4181178,16.11328125,-810.546875,-1000.0,-43.45703125
1755830244.4231186,-291.9921875,-884.765625,-1000.0,-114.74609375
1755830244.4281194,-539.0625,-800.78125,-1000.0,-193.359375
1755830244.4331205,-312.5,-755.859375,-1000.0,-143.06640625
1755830244.438121,-61.03515625,-785.64453125,-1000.0,-103.02734375
1755830244.443122,-216.796875,-993.1640625,-1000.0,-121.09375
1755830244.448123,-521.484375,-1000.0,-1000.0,-188.96484375
1755830244.4531238,-442.3828125,-865.72265625,-1000.0,-211.42578125
1755830244.4581246,-83.49609375,-890.625,-1000.0,-83.49609375
1755830244.4631257,-178.22265625,-934.5703125,-1000.0,-121.09375
1755830244.4681263,-572.265625,-818.359375,-1000.0,-272.94921875
1755830244.4731271,-536.1328125,-901.3671875,-1000.0,-217.7734375
1755830244.475604,-241.69921875,-933.59375,-1000.0,-169.43359375
1755830244.4780812,-218.26171875,-791.9921875,-1000.0,-187.01171875
1755830244.4805582,-479.98046875,-875.9765625,-1000.0,-188.4765625
1755830244.483035,-575.68359375,-1000.0,-1000.0,-179.6875
1755830244.485512,-324.70703125,-971.19140625,-1000.0,-170.41015625
1755830244.487989,-177.24609375,-982.91015625,-1000.0,-169.921875
1755830244.490466,-426.26953125,-997.0703125,-1000.0,-223.6328125
1755830244.492943,-604.4921875,-1000.0,-1000.0,-222.65625
1755830244.49542,-405.2734375,-988.76953125,-1000.0,-189.453125
1755830244.4978971,-217.28515625,-675.78125,-1000.0,-261.71875
1755830244.500374,-343.75,-512.6953125,-1000.0,-281.25
1755830244.502851,-522.4609375,-855.95703125,-1000.0,-198.2421875
1755830244.5078535,-422.36328125,-1000.0,-1000.0,-183.10546875
1755830244.512856,-225.5859375,-734.86328125,-1000.0,-275.390625
1755830244.5178585,-224.12109375,-508.30078125,-1000.0,-242.67578125
1755830244.5228608,-499.51171875,-785.64453125,-1000.0,-232.421875
1755830244.5278633,-523.92578125,-961.42578125,-1000.0,-243.65234375
1755830244.5328658,-200.68359375,-957.51953125,-1000.0,-166.015625
1755830244.5378685,-168.45703125,-942.3828125,-1000.0,-197.265625
1755830244.5428708,-394.53125,-957.03125,-1000.0,-167.48046875
1755830244.547873,-547.8515625,-984.86328125,-1000.0,-192.87109375
1755830244.5528755,-389.16015625,-634.765625,-1000.0,-326.171875
1755830244.557878,-130.859375,-451.66015625,-996.58203125,-224.609375
1755830244.5628805,-314.453125,-681.640625,-999.0234375,-215.33203125
1755830244.5653982,-541.015625,-747.0703125,-1000.0,-271.97265625
1755830244.5679157,-355.95703125,-554.6875,-1000.0,-229.4921875
1755830244.5704331,-61.03515625,-539.55078125,-999.51171875,-162.109375
1755830244.5729508,-185.05859375,-694.3359375,-1000.0,-164.55078125
1755830244.5754683,-500.9765625,-680.6640625,-1000.0,-224.609375
1755830244.577986,-409.66796875,-818.359375,-995.60546875,-187.5
1755830244.5805037,-93.75,-919.43359375,-1000.0,-108.88671875
1755830244.5830212,-124.0234375,-692.87109375,-937.98828125,-145.01953125
1755830244.5855389,-424.8046875,-627.44140625,-914.0625,-207.03125
1755830244.5880563,-466.796875,-705.078125,-1000.0,-217.7734375
1755830244.5905738,-126.953125,-655.2734375,-993.65234375,-125.0
1755830244.5930915,29.296875,-985.3515625,-999.0234375,-29.296875
1755830244.5968482,-370.60546875,-750.48828125,-996.09375,-215.33203125
1755830244.6006052,-519.04296875,-452.1484375,-979.98046875,-248.53515625
1755830244.604362,-211.42578125,-640.625,-1000.0,-130.37109375
1755830244.6081188,-44.921875,-442.87109375,-873.53515625,-138.18359375
1755830244.6118758,-268.5546875,-221.19140625,-783.69140625,-152.34375
1755830244.6156323,-484.375,-615.234375,-978.515625,-129.8828125
1755830244.6193893,-283.69140625,-977.05078125,-1000.0,-63.4765625
1755830244.6231463,-33.203125,-748.53515625,-901.85546875,-71.77734375
1755830244.626903,-180.6640625,-307.6171875,-786.62109375,-159.1796875
1755830244.6306598,-421.875,-439.94140625,-938.4765625,-153.80859375
1755830244.6344168,-370.60546875,-616.2109375,-1000.0,-152.83203125
1755830244.6381736,-83.49609375,-517.578125,-919.921875,-126.46484375
1755830244.643334,-67.3828125,-322.75390625,-866.2109375,-138.671875
1755830244.648494,-353.515625,-370.60546875,-913.0859375,-149.4140625
1755830244.653654,-420.41015625,-801.26953125,-1000.0,-121.09375
1755830244.6588144,-191.89453125,-598.14453125,-965.8203125,-162.59765625
1755830244.6639748,-63.4765625,-128.90625,-865.72265625,-161.62109375
1755830244.6691349,-259.765625,-475.09765625,-951.66015625,-88.8671875
1755830244.674295,-441.40625,-960.44921875,-1000.0,-83.0078125
1755830244.6794553,-304.19921875,-582.03125,-1000.0,-178.22265625
1755830244.6846156,-66.40625,-117.67578125,-945.80078125,-153.3203125
1755830244.6897757,-212.40234375,-361.328125,-938.96484375,-106.4453125
1755830244.6949358,-462.40234375,-750.48828125,-1000.0,-108.88671875
1755830244.700096,-342.28515625,-676.7578125,-999.51171875,-125.0
1755830244.7037024,-83.49609375,-310.546875,-999.0234375,-111.81640625
1755830244.707309,-132.32421875,-433.59375,-1000.0,-84.9609375
1755830244.710915,-414.55078125,-923.33984375,-1000.0,-127.44140625
1755830244.7145216,-441.89453125,-809.5703125,-1000.0,-170.8984375
1755830244.7181282,-129.8828125,-468.75,-1000.0,-121.58203125
1755830244.7217343,-46.38671875,-736.81640625,-1000.0,-55.17578125
1755830244.7253408,-376.46484375,-927.734375,-1000.0,-138.18359375
1755830244.7289474,-500.48828125,-622.0703125,-1000.0,-203.61328125
1755830244.7325535,-214.35546875,-397.4609375,-1000.0,-147.4609375
1755830244.73616,34.1796875,-694.82421875,-1000.0,-12.6953125
1755830244.7397666,-235.83984375,-1000.0,-1000.0,-75.68359375
1755830244.743373,-543.45703125,-709.47265625,-1000.0,-243.1640625
1755830244.747083,-276.85546875,-524.90234375,-1000.0,-151.85546875
1755830244.7507927,-30.76171875,-526.3671875,-1000.0,-107.421875
1755830244.7545028,-227.5390625,-417.48046875,-1000.0,-166.9921875
1755830244.7582126,-493.65234375,-481.93359375,-1000.0,-190.4296875
1755830244.7619226,-355.46875,-747.55859375,-1000.0,-141.11328125
1755830244.7656326,-55.17578125,-845.21484375,-1000.0,-94.23828125
1755830244.7693424,-106.93359375,-780.76171875,-1000.0,-124.51171875
1755830244.7730525,-426.26953125,-782.2265625,-1000.0,-194.3359375
1755830244.7767622,-416.9921875,-797.36328125,-1000.0,-178.7109375
1755830244.7804725,-31.73828125,-1000.0,-1000.0,-28.80859375
1755830244.784182,-52.734375,-799.31640625,-1000.0,-128.41796875
1755830244.787892,-407.2265625,-335.9375,-1000.0,-247.0703125
1755830244.7916608,-425.29296875,-700.1953125,-1000.0,-124.51171875
1755830244.7954297,-178.7109375,-812.5,-1000.0,-107.421875
1755830244.7991982,-62.5,-326.66015625,-1000.0,-184.08203125
1755830244.802967,-257.32421875,-375.48828125,-1000.0,-174.8046875
1755830244.8067358,-461.42578125,-793.9453125,-1000.0,-147.94921875
1755830244.8105044,-288.0859375,-1000.0,-1000.0,-130.859375
1755830244.814273,-66.40625,-678.22265625,-999.0234375,-143.06640625
1755830244.8180418,-202.63671875,-438.4765625,-998.53515625,-159.66796875
1755830244.8218107,-378.41796875,-850.5859375,-1000.0,-68.84765625
1755830244.8255794,-331.0546875,-1000.0,-1000.0,-85.44921875
1755830244.829348,-138.671875,-632.32421875,-1000.0,-197.75390625
1755830244.8331168,-106.4453125,-541.9921875,-1000.0,-148.4375
1755830244.836866,-387.6953125,-918.9453125,-996.09375,-150.87890625
1755830244.8406155,-460.44921875,-949.70703125,-1000.0,-181.15234375
1755830244.8443651,-177.734375,-539.0625,-979.4921875,-161.1328125
1755830244.8481147,-44.43359375,-472.65625,-942.3828125,-113.28125
1755830244.851864,-299.31640625,-890.625,-997.0703125,-107.91015625
1755830244.8556137,-483.3984375,-1000.0,-1000.0,-163.0859375
1755830244.859363,-290.0390625,-902.34375,-997.55859375,-216.30859375
1755830244.8631124,-68.359375,-789.0625,-1000.0,-168.45703125
1755830244.866862,-266.6015625,-965.33203125,-1000.0,-160.15625
1755830244.8706114,-590.33203125,-934.08203125,-1000.0,-313.4765625
1755830244.874361,-406.25,-774.90234375,-1000.0,-291.50390625
1755830244.8781104,-55.6640625,-893.5546875,-1000.0,-152.83203125
1755830244.88186,-159.66796875,-912.109375,-1000.0,-197.75390625
1755830244.8856096,-502.44140625,-845.21484375,-1000.0,-325.1953125
1755830244.8893592,-455.078125,-876.953125,-1000.0,-276.85546875
1755830244.8931088,-156.25,-889.6484375,-1000.0,-224.12109375
1755830244.8968585,-157.2265625,-854.4921875,-1000.0,-252.9296875
1755830244.900608,-414.0625,-909.66796875,-1000.0,-264.16015625
1755830244.9043577,-477.5390625,-1000.0,-1000.0,-263.18359375
1755830244.9081073,-167.96875,-1000.0,-1000.0,-167.48046875
1755830244.911857,-72.265625,-880.859375,-1000.0,-193.359375
1755830244.9156065,-391.11328125,-697.265625,-1000.0,-321.2890625
1755830244.919356,-500.0,-879.8828125,-1000.0,-287.59765625
1755830244.9231057,-300.29296875,-942.87109375,-1000.0,-249.51171875
1755830244.9269688,-117.67578125,-656.25,-1000.0,-243.1640625
1755830244.930832,-251.953125,-687.98828125,-1000.0,-265.13671875
1755830244.934695,-476.5625,-976.5625,-1000.0,-275.87890625
1755830244.938558,-342.28515625,-1000.0,-1000.0,-275.87890625
1755830244.9424212,-101.07421875,-769.53125,-998.046875,-290.0390625
1755830244.9462843,-166.9921875,-830.078125,-999.51171875,-263.671875
1755830244.9501476,-413.57421875,-1000.0,-998.046875,-246.58203125
1755830244.9540107,-384.765625,-1000.0,-1000.0,-228.02734375
1755830244.9578738,-150.87890625,-762.20703125,-984.86328125,-277.83203125
1755830244.961737,-86.42578125,-477.5390625,-943.359375,-264.16015625
1755830244.9656,-303.7109375,-754.8828125,-978.515625,-219.23828125
1755830244.969463,-419.921875,-970.21484375,-1000.0,-259.765625
1755830244.9743345,-191.89453125,-621.58203125,-946.2890625,-280.76171875
1755830244.9792056,-7.8125,-384.765625,-847.65625,-239.2578125
1755830244.984077,-216.796875,-729.00390625,-948.73046875,-216.30859375
1755830244.9889483,-431.640625,-938.4765625,-1000.0,-246.09375
1755830244.9938197,-232.421875,-726.5625,-994.62890625,-245.1171875
1755830244.998691,18.06640625,-748.046875,-1000.0,-199.21875
1755830245.0035622,-82.03125,-944.3359375,-1000.0,-145.99609375
1755830245.0084336,-377.44140625,-996.09375,-999.51171875,-213.8671875
1755830245.013305,-365.234375,-753.41796875,-1000.0,-323.2421875
1755830245.018176,-27.83203125,-522.4609375,-970.21484375,-242.1875
1755830245.0230474,-78.125,-631.8359375,-973.6328125,-212.890625
1755830245.0279188,-397.94921875,-750.9765625,-1000.0,-266.11328125
1755830245.031628,-402.83203125,-643.06640625,-993.1640625,-272.94921875
1755830245.035337,-85.9375,-583.984375,-1000.0,-204.1015625
1755830245.0390458,-0.48828125,-636.71875,-940.91796875,-184.08203125
1755830245.042755,-312.98828125,-525.87890625,-906.73828125,-260.7421875
1755830245.046464,-411.62109375,-568.84765625,-998.046875,-240.72265625
1755830245.050173,-105.46875,-813.4765625,-1000.0,-151.3671875
1755830245.053882,48.828125,-673.828125,-919.921875,-161.62109375
1755830245.0575912,-172.8515625,-502.44140625,-879.8828125,-190.91796875
1755830245.0613005,-364.2578125,-804.19921875,-1000.0,-185.546875
1755830245.065009,-160.64453125,-818.359375,-1000.0,-125.9765625
1755830245.0687182,146.484375,-964.84375,-1000.0,-15.625
1755830245.0724273,-92.28515625,-744.62890625,-944.3359375,-154.78515625
1755830245.0761807,-371.58203125,-416.015625,-891.6015625,-203.61328125
1755830245.079934,-218.75,-602.05078125,-984.86328125,-112.3046875
1755830245.0836878,54.19921875,-466.796875,-886.71875,-104.98046875
1755830245.0874412,14.6484375,-178.7109375,-754.8828125,-128.41796875
1755830245.0911946,-221.6796875,-437.98828125,-910.15625,-119.140625
1755830245.0949483,-216.796875,-936.03515625,-1000.0,-78.61328125
1755830245.0987017,-22.94921875,-733.3984375,-957.51953125,-106.93359375
1755830245.1024551,38.0859375,-164.0625,-776.3671875,-136.71875
1755830245.1062086,-185.05859375,-173.828125,-843.26171875,-130.37109375
1755830245.109962,-274.4140625,-727.05078125,-1000.0,-86.9140625
1755830245.1137156,-58.59375,-716.30859375,-983.88671875,-89.35546875
1755830245.117469,102.05078125,-350.5859375,-968.26171875,-99.12109375
1755830245.1225004,-94.7265625,-320.3125,-965.8203125,-107.91015625
1755830245.1275318,-310.05859375,-618.1640625,-995.60546875,-118.1640625
1755830245.132563,-158.69140625,-532.71484375,-1000.0,-125.48828125
1755830245.1375945,104.98046875,-65.91796875,-905.2734375,-105.95703125
1755830245.1426258,28.3203125,-119.140625,-905.76171875,-67.87109375
1755830245.1476572,-226.07421875,-690.4296875,-1000.0,-61.03515625
1755830245.1526885,-212.40234375,-648.4375,-1000.0,-116.69921875
1755830245.15772,64.453125,-35.64453125,-956.54296875,-104.00390625
1755830245.1627512,134.27734375,-212.890625,-927.734375,3.90625
1755830245.1677823,-153.80859375,-715.33203125,-995.60546875,-7.32421875
1755830245.172814,-289.55078125,-462.890625,-1000.0,-116.69921875
1755830245.1778452,9.27734375,-48.33984375,-933.59375,-78.125
1755830245.181559,182.12890625,-126.953125,-904.296875,13.671875
1755830245.1852732,-57.12890625,-477.05078125,-1000.0,17.08984375
1755830245.188987,-278.3203125,-479.98046875,-1000.0,-70.3125
1755830245.1927009,-95.703125,-99.12109375,-967.28515625,-86.9140625
1755830245.1964147,177.734375,-360.3515625,-958.984375,28.3203125
1755830245.2001286,-15.625,-858.3984375,-1000.0,-16.11328125
1755830245.2038426,-352.05078125,-563.4765625,-999.51171875,-160.15625
1755830245.2075565,-199.70703125,-211.9140625,-998.046875,-124.0234375
1755830245.2112703,122.0703125,-552.24609375,-1000.0,-21.484375
1755830245.2149844,-24.4140625,-534.66796875,-962.890625,-101.07421875
1755830245.2186985,-331.54296875,-89.35546875,-958.984375,-170.8984375
1755830245.222412,-241.69921875,-188.96484375,-1000.0,-95.703125
1755830245.224959,78.125,-694.3359375,-1000.0,-1.953125
1755830245.2275052,39.0625,-580.56640625,-938.4765625,-73.2421875
1755830245.2300518,-260.25390625,-35.64453125,-922.36328125,-146.97265625
1755830245.2325983,-277.34375,-259.27734375,-1000.0,-79.58984375
1755830245.2351449,6.8359375,-367.1875,-983.88671875,-31.73828125
1755830245.2376914,141.11328125,-212.890625,-939.94140625,-23.92578125
1755830245.2402382,-116.69921875,-283.69140625,-976.07421875,-66.40625
1755830245.2427847,-281.73828125,-569.3359375,-1000.0,-54.6875
1755830245.2453313,-79.1015625,-711.42578125,-970.21484375,-32.2265625
1755830245.2478778,88.37890625,-128.90625,-744.140625,-82.51953125
1755830245.2504244,-58.10546875,286.62109375,-685.546875,-81.0546875
1755830245.252971,-240.234375,-246.58203125,-887.20703125,-10.7421875
1755830245.2579064,-107.421875,-742.1875,-1000.0,28.3203125
1755830245.2628417,83.49609375,-108.88671875,-850.5859375,-52.24609375
1755830245.2677772,28.3203125,281.73828125,-620.60546875,-59.5703125
1755830245.2727127,-213.37890625,-140.13671875,-844.7265625,-45.41015625
1755830245.277648,-197.75390625,-346.6796875,-1000.0,-36.1328125
1755830245.2825837,90.8203125,-248.046875,-986.328125,0.9765625
1755830245.287519,115.234375,-178.22265625,-959.9609375,-21.97265625
1755830245.2924542,-109.86328125,-587.890625,-975.09765625,13.18359375
1755830245.2973895,-229.4921875,-945.80078125,-1000.0,-18.5546875
1755830245.3023252,-78.61328125,-295.41015625,-945.80078125,-123.53515625
1755830245.3072605,132.8125,163.57421875,-722.16796875,-57.6171875
1755830245.312196,-68.84765625,-83.49609375,-833.49609375,-41.9921875
1755830245.314773,-308.59375,-185.546875,-990.234375,-80.56640625
1755830245.3173506,-116.69921875,42.96875,-846.19140625,-41.9921875
1755830245.319928,163.0859375,57.6171875,-744.140625,8.30078125
1755830245.3225052,20.5078125,-145.99609375,-880.859375,-21.97265625
1755830245.3250823,-268.5546875,-237.3046875,-984.86328125,-69.3359375
1755830245.32766,-156.73828125,-382.8125,-993.1640625,-54.19921875
1755830245.3302374,136.23046875,-485.3515625,-1000.0,-22.94921875
1755830245.3328147,79.1015625,-621.58203125,-979.00390625,-47.8515625
1755830245.335392,-267.08984375,-410.15625,-968.75,-148.4375
1755830245.3379693,-296.875,-44.43359375,-921.875,-145.5078125
1755830245.3405466,67.87109375,-239.74609375,-892.578125,-10.7421875
1755830245.343124,166.9921875,-806.640625,-997.55859375,21.484375
1755830245.3468716,-216.796875,-474.12109375,-999.51171875,-153.80859375
1755830245.350619,-330.078125,-96.19140625,-988.76953125,-158.203125
1755830245.3543668,-24.90234375,-293.9453125,-1000.0,-71.2890625
1755830245.3581142,144.04296875,-112.3046875,-855.95703125,-82.51953125
1755830245.361862,-74.70703125,28.80859375,-832.51953125,-108.3984375
1755830245.3656096,-288.0859375,-269.53125,-989.74609375,-109.375
1755830245.369357,-67.3828125,-730.46875,-1000.0,-18.5546875
1755830245.3731048,149.90234375,-643.06640625,-884.27734375,-21.97265625
1755830245.3768525,-51.7578125,81.54296875,-705.56640625,-145.01953125
1755830245.3806,-252.44140625,-33.69140625,-886.23046875,-103.515625
1755830245.3843474,-173.33984375,-301.7578125,-1000.0,-75.1953125
1755830245.3880951,36.62109375,-16.11328125,-815.4296875,-103.02734375
1755830245.3929825,24.4140625,179.19921875,-712.40234375,-99.609375
1755830245.39787,-210.9375,-215.8203125,-894.53125,-84.47265625
1755830245.4027574,-265.625,-697.75390625,-1000.0,-101.5625
1755830245.4076447,-34.1796875,-343.26171875,-943.359375,-122.0703125
1755830245.412532,92.28515625,115.234375,-812.5,-78.125
1755830245.4174194,-121.58203125,-272.94921875,-914.55078125,-37.109375
1755830245.422307,-287.109375,-832.03125,-1000.0,-62.5
1755830245.4271944,-120.60546875,-391.11328125,-916.50390625,-126.46484375
1755830245.4320817,98.14453125,220.21484375,-726.5625,-95.21484375
1755830245.4369693,-27.34375,-79.58984375,-816.89453125,-38.57421875
1755830245.4418566,-262.20703125,-469.7265625,-1000.0,-74.70703125
1755830245.446744,-151.85546875,-169.43359375,-995.1171875,-108.3984375
1755830245.4505448,130.859375,201.66015625,-789.55078125,-63.96484375
1755830245.4543457,44.43359375,-13.18359375,-809.5703125,-69.82421875
1755830245.4581468,-273.4375,-221.19140625,-1000.0,-131.34765625
1755830245.4619477,-226.5625,15.625,-917.48046875,-129.39453125
1755830245.4657483,103.515625,40.0390625,-904.296875,-62.98828125
1755830245.4695497,178.7109375,-509.765625,-996.09375,19.53125
1755830245.4733503,-148.4375,-849.609375,-1000.0,-49.8046875
1755830245.4771514,-329.1015625,-215.33203125,-989.74609375,-182.6171875
1755830245.4809525,4.39453125,129.39453125,-869.62890625,-81.54296875
1755830245.4847531,179.6875,-217.28515625,-910.64453125,-20.5078125
1755830245.4885542,-124.51171875,-219.7265625,-965.33203125,-103.02734375
1755830245.492355,-307.6171875,82.51953125,-929.19921875,-133.30078125
1755830245.4961386,-37.109375,-30.2734375,-1000.0,-54.6875
1755830245.4999225,166.015625,-71.2890625,-914.0625,-23.92578125
1755830245.503706,-46.875,16.6015625,-863.28125,-83.0078125
1755830245.5074894,-288.0859375,-82.03125,-1000.0,-110.3515625
1755830245.511273,-152.34375,-192.87109375,-1000.0,-68.84765625
1755830245.5150566,138.671875,-428.22265625,-998.53515625,-6.8359375
1755830245.5188403,22.4609375,-298.33984375,-987.3046875,-55.17578125
1755830245.5226238,-282.2265625,-263.671875,-983.3984375,-118.65234375
1755830245.5264072,-217.7734375,-597.16796875,-1000.0,-74.70703125
1755830245.530191,112.3046875,-929.6875,-1000.0,21.484375
1755830245.5339746,80.56640625,-557.6171875,-967.7734375,-61.03515625
1755830245.537758,-234.86328125,-16.6015625,-949.70703125,-131.8359375
1755830245.541536,-285.64453125,-273.4375,-1000.0,-99.609375
1755830245.5453136,-27.34375,-144.04296875,-899.90234375,-75.68359375
1755830245.549091,119.62890625,296.38671875,-700.68359375,-64.94140625
1755830245.552869,-101.07421875,223.6328125,-814.94140625,-83.984375
1755830245.5566468,-282.2265625,-264.6484375,-984.86328125,-76.171875
1755830245.5604248,-92.28515625,-505.37109375,-1000.0,-48.828125
1755830245.5642023,125.48828125,-194.82421875,-978.515625,-64.453125
1755830245.5679803,-41.9921875,160.15625,-894.04296875,-115.72265625
1755830245.571758,-230.46875,-436.03515625,-957.03125,-37.59765625
1755830245.5755358,-138.671875,-713.37890625,-979.98046875,-25.87890625
1755830245.5793135,66.89453125,-27.34375,-870.60546875,-91.796875
1755830245.5830913,43.45703125,123.046875,-804.6875,-83.0078125
1755830245.5868592,-237.79296875,-325.68359375,-935.05859375,-96.19140625
1755830245.5906274,-286.1328125,-356.4453125,-1000.0,-138.671875
1755830245.5943954,12.6953125,129.8828125,-879.39453125,-109.375
1755830245.5981634,118.1640625,95.703125,-796.875,-51.26953125
1755830245.6019316,-164.0625,-87.40234375,-931.15234375,-89.35546875
1755830245.6056995,-285.64453125,-316.89453125,-1000.0,-94.7265625
1755830245.6094675,-33.69140625,-227.5390625,-957.03125,-85.44921875
1755830245.6132357,163.57421875,-16.6015625,-858.88671875,-50.29296875
1755830245.6170037,-54.19921875,-575.1953125,-968.26171875,-39.55078125
1755830245.6207716,-346.6796875,-442.3828125,-1000.0,-146.97265625
1755830245.62454,-160.15625,122.0703125,-822.75390625,-114.74609375
1755830245.6283078,130.37109375,42.96875,-786.1328125,-30.2734375
1755830245.633405,12.20703125,-100.5859375,-872.0703125,-49.31640625
1755830245.638502,-272.4609375,-242.67578125,-931.640625,-110.83984375
1755830245.6435995,-221.19140625,-143.5546875,-959.9609375,-113.28125
1755830245.648697,102.5390625,-218.26171875,-911.1328125,-20.01953125
1755830245.6537938,95.703125,-378.41796875,-939.453125,-23.4375
1755830245.6588912,-208.984375,-299.8046875,-959.9609375,-88.8671875
1755830245.6639884,-245.60546875,-355.46875,-1000.0,-84.9609375
1755830245.6690855,62.01171875,-567.3828125,-1000.0,-12.6953125
1755830245.674183,138.18359375,-583.49609375,-927.734375,-5.37109375
1755830245.6792798,-187.5,44.43359375,-821.2890625,-111.81640625
1755830245.6843772,-292.96875,-57.6171875,-945.80078125,-90.33203125
1755830245.6894743,-54.6875,-199.70703125,-994.62890625,-54.6875
1755830245.691869,126.953125,79.1015625,-810.546875,-60.546875
1755830245.694264,-67.87109375,150.87890625,-820.80078125,-90.8203125
1755830245.6966586,-274.90234375,-144.53125,-990.72265625,-77.63671875
1755830245.6990535,-75.68359375,-304.6875,-996.58203125,-11.23046875
1755830245.7014482,169.43359375,-238.28125,-991.69921875,-10.7421875
1755830245.703843,16.11328125,-258.7890625,-998.53515625,-68.84765625
1755830245.7062378,-246.09375,-478.515625,-999.0234375,-73.2421875
1755830245.7086325,-166.015625,-541.50390625,-1000.0,-33.69140625
1755830245.7110274,105.95703125,-62.98828125,-848.14453125,-36.1328125
1755830245.713422,108.3984375,238.28125,-740.234375,-61.03515625
1755830245.715817,-126.953125,-187.01171875,-886.23046875,-26.3671875
1755830245.7182117,-154.296875,-953.61328125,-1000.0,38.0859375
1755830245.7231486,-5.37109375,-463.8671875,-922.36328125,-63.96484375
1755830245.7280853,94.23828125,294.921875,-651.3671875,-74.70703125
1755830245.7330222,-96.19140625,-55.6640625,-788.0859375,-39.55078125
1755830245.7379591,-276.3671875,-287.59765625,-1000.0,-82.03125
1755830245.7428958,-61.5234375,27.34375,-905.2734375,-53.22265625
1755830245.7478328,181.640625,32.71484375,-875.9765625,-13.18359375
1755830245.7527697,30.2734375,-534.66796875,-965.8203125,7.8125
1755830245.7577064,-255.37109375,-866.2109375,-1000.0,-44.43359375
1755830245.762643,-191.40625,-136.71875,-908.69140625,-133.7890625
1755830245.7675805,136.23046875,265.625,-716.796875,-54.6875
1755830245.772517,81.0546875,-178.22265625,-856.4453125,-16.6015625
1755830245.777454,-237.79296875,-279.78515625,-958.0078125,-77.1484375
1755830245.78122,-208.0078125,1.953125,-932.12890625,-58.59375
1755830245.784986,108.88671875,1.46484375,-900.87890625,-6.34765625
1755830245.7887523,127.9296875,-102.05078125,-885.7421875,-18.06640625
1755830245.7925184,-183.10546875,-89.35546875,-931.640625,-63.96484375
1755830245.7962844,-253.41796875,-53.7109375,-959.9609375,-65.91796875
1755830245.8000507,50.29296875,-317.3828125,-1000.0,3.41796875
1755830245.8038168,172.8515625,-357.421875,-925.78125,-5.859375
1755830245.8075829,-113.28125,1.953125,-802.734375,-80.078125
1755830245.811349,-296.38671875,51.7578125,-892.08984375,-90.8203125
1755830245.815115,-41.9921875,-169.43359375,-955.56640625,-6.34765625
1755830245.8188813,225.5859375,-819.82421875,-1000.0,83.0078125
1755830245.822647,-45.8984375,-533.203125,-936.5234375,-67.3828125
1755830245.827743,-302.24609375,80.56640625,-880.37109375,-125.0
1755830245.8328388,-125.0,-250.9765625,-1000.0,-23.92578125
1755830245.8379345,113.28125,-177.734375,-874.51171875,-20.99609375
1755830245.8430305,26.85546875,182.12890625,-719.23828125,-62.5
1755830245.8481262,-233.3984375,-14.16015625,-902.34375,-62.01171875
1755830245.853222,-195.80078125,-606.4453125,-1000.0,-3.41796875
1755830245.8583176,50.78125,-583.49609375,-989.74609375,-26.3671875
1755830245.863413,63.96484375,68.84765625,-772.4609375,-83.49609375
1755830245.8685093,-194.3359375,220.703125,-707.03125,-88.8671875
1755830245.873605,-231.93359375,-533.203125,-968.26171875,-10.7421875
1755830245.8787007,-9.27734375,-666.50390625,-951.66015625,-13.671875
1755830245.8837965,81.54296875,201.171875,-637.20703125,-95.21484375
1755830245.8862388,-106.4453125,97.65625,-668.45703125,-81.54296875
1755830245.888681,-307.12890625,-423.33984375,-988.28125,-91.30859375
1755830245.8911233,-145.5078125,-250.0,-949.21875,-121.58203125
1755830245.8935654,86.9140625,245.60546875,-631.34765625,-113.76953125
1755830245.8960078,-31.73828125,154.296875,-635.25390625,-85.9375
1755830245.89845,-276.3671875,-490.72265625,-970.703125,-72.75390625
1755830245.9008925,-245.60546875,-417.48046875,-1000.0,-123.046875
1755830245.9033346,17.578125,213.8671875,-698.73046875,-129.8828125
1755830245.9057767,47.36328125,43.9453125,-702.63671875,-60.546875
1755830245.908219,-229.00390625,-435.546875,-988.28125,-83.49609375
1755830245.9106612,-309.5703125,-134.27734375,-910.15625,-134.765625
1755830245.9131036,-20.01953125,265.13671875,-694.3359375,-98.6328125
1755830245.9168806,140.13671875,-35.64453125,-767.08984375,-27.34375
1755830245.9206576,-131.34765625,-830.56640625,-1000.0,-52.734375
1755830245.924435,-354.4921875,-488.76953125,-1000.0,-181.15234375
1755830245.9282117,-78.125,-67.87109375,-989.2578125,-122.55859375
1755830245.9319887,152.34375,-495.60546875,-1000.0,-41.015625
1755830245.9357655,-73.73046875,-759.27734375,-997.0703125,-82.03125
1755830245.9395423,-361.81640625,-440.4296875,-1000.0,-151.85546875
1755830245.9433196,-195.3125,38.0859375,-912.109375,-145.5078125
1755830245.9470966,158.203125,-425.78125,-920.8984375,-8.30078125
1755830245.9508736,-3.41796875,-635.25390625,-935.05859375,-52.24609375
1755830245.9546506,-337.890625,-94.7265625,-891.11328125,-158.203125
1755830245.9584277,-220.703125,-358.3984375,-1000.0,-88.37890625
1755830245.962152,35.15625,-243.65234375,-950.1953125,-94.7265625
1755830245.965876,21.484375,123.53515625,-711.42578125,-108.88671875
1755830245.9696004,-250.9765625,113.28125,-770.99609375,-125.0
1755830245.9733243,-285.64453125,-116.69921875,-975.09765625,-103.515625
1755830245.9770489,3.90625,-205.56640625,-955.56640625,-59.08203125
1755830245.980773,104.00390625,-200.1953125,-916.9921875,-62.98828125
1755830245.9844973,-167.48046875,-266.11328125,-982.91015625,-125.0
1755830245.9882216,-325.68359375,-335.44921875,-994.140625,-128.41796875
1755830245.9919455,-26.3671875,-879.8828125,-1000.0,0.48828125
1755830245.99567,104.4921875,-618.65234375,-885.7421875,-77.63671875
1755830245.9993942,-155.76171875,245.60546875,-634.27734375,-189.453125
1755830246.0031185,-300.29296875,-188.4765625,-837.40234375,-87.890625
1755830246.0069304,-154.296875,-366.69921875,-934.5703125,-78.61328125
1755830246.0107424,69.82421875,266.11328125,-615.234375,-111.328125
1755830246.0145545,9.27734375,324.21875,-571.2890625,-92.7734375
1755830246.018366,-256.34765625,-186.5234375,-863.76953125,-100.5859375
1755830246.0221782,-247.55859375,-377.44140625,-1000.0,-101.5625
1755830246.02599,48.33984375,-262.6953125,-988.76953125,-69.3359375
1755830246.0298018,58.10546875,-166.50390625,-958.984375,-83.984375
1755830246.033614,-192.3828125,-570.80078125,-979.00390625,-74.21875
1755830246.0374258,-279.296875,-767.08984375,-997.55859375,-102.5390625
1755830246.0412376,-63.96484375,-190.4296875,-923.33984375,-141.11328125
1755830246.0450497,102.05078125,-110.83984375,-872.0703125,-74.70703125
1755830246.0488615,-173.33984375,-375.9765625,-923.828125,-110.3515625
1755830246.052658,-379.8828125,-322.75390625,-969.23828125,-159.66796875
1755830246.0564544,-158.69140625,53.7109375,-823.73046875,-140.13671875
1755830246.060251,78.125,148.4375,-653.80859375,-102.05078125
1755830246.064047,-85.44921875,-35.64453125,-808.10546875,-107.421875
1755830246.067844,-352.05078125,-176.26953125,-958.984375,-143.5546875
1755830246.0716405,-218.26171875,-299.8046875,-1000.0,-112.3046875
1755830246.0754368,62.01171875,-200.1953125,-922.8515625,-72.265625
1755830246.0792334,10.7421875,-608.3984375,-947.75390625,-59.08203125
1755830246.0830295,-328.125,-535.15625,-946.2890625,-148.92578125
1755830246.0868263,-314.453125,152.83203125,-737.79296875,-142.578125
1755830246.090623,46.875,-24.90234375,-817.3828125,-41.50390625
1755830246.0944192,83.984375,-82.03125,-809.5703125,-65.91796875
1755830246.098174,-204.58984375,-71.77734375,-791.50390625,-126.953125
1755830246.1019285,-309.5703125,-157.71484375,-947.75390625,-137.20703125
1755830246.105683,-22.94921875,-305.17578125,-948.2421875,-36.1328125
1755830246.109438,132.32421875,-306.640625,-842.28515625,-27.83203125
1755830246.1131926,-127.9296875,43.45703125,-750.0,-95.21484375
1755830246.1169472,-292.48046875,-209.9609375,-964.84375,-83.49609375
1755830246.1207018,-47.8515625,-689.94140625,-1000.0,-14.16015625
1755830246.1244564,162.59765625,-835.44921875,-958.49609375,-7.32421875
1755830246.128211,-88.37890625,-47.8515625,-730.46875,-153.3203125
1755830246.131966,-312.5,163.0859375,-687.98828125,-144.04296875
1755830246.1357205,-185.546875,-118.65234375,-867.67578125,-104.4921875
1755830246.139475,80.56640625,70.3125,-750.9765625,-86.42578125
1755830246.1441894,35.15625,283.69140625,-592.7734375,-78.61328125
1755830246.1489038,-224.12109375,85.9375,-746.58203125,-67.87109375
1755830246.1536183,-226.07421875,-235.3515625,-942.3828125,-53.7109375
1755830246.1583326,38.0859375,-248.53515625,-951.66015625,-43.9453125
1755830246.1630468,93.26171875,-51.26953125,-838.37890625,-53.22265625
1755830246.167761,-155.76171875,-165.0390625,-884.765625,-89.84375
1755830246.1724758,-239.2578125,-872.55859375,-1000.0,-33.203125
1755830246.17719,-78.61328125,-603.02734375,-864.74609375,-85.9375
1755830246.1819043,66.89453125,279.78515625,-543.9453125,-129.39453125
1755830246.1866188,-90.8203125,84.47265625,-692.3828125,-66.40625
1755830246.1913333,-312.01171875,-198.2421875,-931.15234375,-88.8671875
1755830246.1960475,-163.57421875,103.02734375,-759.765625,-111.81640625
1755830246.1998923,99.12109375,373.046875,-484.375,-72.75390625
1755830246.2037375,15.625,99.12109375,-633.7890625,-46.875
1755830246.2075825,-269.53125,-141.6015625,-879.39453125,-85.44921875
1755830246.2114277,-220.703125,79.58984375,-747.0703125,-103.02734375
1755830246.2152724,82.03125,252.9296875,-600.5859375,-57.12890625
1755830246.2191176,104.4921875,-244.140625,-787.109375,1.46484375
1755830246.2229626,-193.84765625,-640.625,-1000.0,-52.734375
1755830246.2268076,-276.3671875,-332.03125,-973.14453125,-120.60546875
1755830246.2306526,-24.4140625,134.765625,-706.54296875,-101.07421875
1755830246.2344975,137.20703125,-305.17578125,-773.4375,-4.8828125
1755830246.2383423,-146.97265625,-691.40625,-936.03515625,-60.05859375
1755830246.2421875,-363.76953125,-59.5703125,-773.4375,-153.3203125
1755830246.246064,-75.1953125,83.0078125,-689.453125,-58.10546875
1755830246.2499402,132.32421875,26.3671875,-667.48046875,-37.59765625
1755830246.2538166,-85.44921875,43.9453125,-673.33984375,-76.171875
1755830246.257693,-308.10546875,63.96484375,-686.03515625,-96.6796875
1755830246.2615693,-121.09375,-37.109375,-761.23046875,-52.734375
1755830246.2654457,160.15625,-312.98828125,-904.296875,13.671875
1755830246.2693222,12.20703125,-229.98046875,-836.42578125,-64.453125
1755830246.2731984,-294.921875,80.078125,-703.61328125,-135.25390625
1755830246.2770748,-181.640625,-140.13671875,-841.30859375,-62.98828125
1755830246.2809513,117.67578125,-626.953125,-957.51953125,-20.99609375
1755830246.2848277,42.96875,-147.94921875,-678.22265625,-112.79296875
1755830246.288704,-212.40234375,215.8203125,-601.5625,-111.328125
1755830246.2924016,-228.02734375,-266.11328125,-911.1328125,-43.9453125
1755830246.2960992,11.71875,-253.90625,-842.28515625,-39.0625
1755830246.2997966,107.91015625,222.16796875,-516.11328125,-60.05859375
1755830246.3034942,-124.0234375,142.08984375,-617.67578125,-74.70703125
1755830246.3071918,-273.4375,-318.84765625,-903.80859375,-75.68359375
1755830246.3108892,-54.19921875,-493.1640625,-986.81640625,-45.8984375
1755830246.3145869,123.046875,-172.36328125,-771.484375,-76.171875
1755830246.3182845,-72.265625,149.90234375,-590.33203125,-117.1875
1755830246.321982,-242.1875,-479.00390625,-851.5625,-40.0390625
1755830246.3256798,-140.13671875,-767.08984375,-941.40625,-43.9453125
1755830246.3293772,48.33984375,87.890625,-572.265625,-122.55859375
1755830246.3330748,23.4375,194.82421875,-472.65625,-91.796875
1755830246.3368354,-247.55859375,-237.3046875,-787.109375,-99.12109375
1755830246.3405962,-250.0,-220.703125,-872.55859375,-114.74609375
1755830246.3443568,36.62109375,181.15234375,-572.265625,-76.66015625
1755830246.3481176,93.75,192.87109375,-499.51171875,-62.5
1755830246.3518782,-178.7109375,-129.39453125,-715.33203125,-95.703125
1755830246.355639,-272.4609375,-350.09765625,-891.11328125,-92.7734375
1755830246.3593996,-16.11328125,-257.32421875,-835.44921875,-74.70703125
1755830246.36316,134.765625,-12.20703125,-641.11328125,-53.7109375
1755830246.366921,-80.078125,-545.8984375,-887.6953125,-46.38671875
1755830246.3706815,-339.84375,-416.50390625,-855.95703125,-155.2734375
1755830246.3744423,-129.39453125,167.48046875,-533.203125,-110.3515625
1755830246.378203,157.71484375,-6.8359375,-587.40234375,-19.53125
1755830246.3819652,-33.203125,-32.2265625,-628.90625,-76.66015625
1755830246.3857276,-296.875,99.12109375,-599.609375,-116.69921875
1755830246.38949,-148.92578125,120.1171875,-570.80078125,-67.3828125
1755830246.393252,155.2734375,-209.47265625,-733.88671875,2.44140625
1755830246.3970146,67.3828125,-309.08203125,-808.59375,-49.31640625
1755830246.4007769,-240.234375,-190.4296875,-749.51171875,-106.4453125
1755830246.404539,-236.81640625,-207.51953125,-824.70703125,-95.703125
1755830246.4083016,103.515625,-514.16015625,-902.83203125,-2.9296875
1755830246.4120638,148.4375,-595.703125,-848.14453125,-21.97265625
1755830246.415826,-206.54296875,209.9609375,-487.79296875,-163.0859375
1755830246.4195886,-251.46484375,220.21484375,-554.6875,-95.703125
1755830246.4233508,21.484375,-3.90625,-701.171875,-34.1796875
1755830246.4283092,153.3203125,178.22265625,-514.6484375,-59.08203125
1755830246.4332676,-72.265625,330.078125,-432.6171875,-90.8203125
1755830246.438226,-262.6953125,89.84375,-664.0625,-69.82421875
1755830246.4431844,-76.171875,-159.1796875,-798.33984375,-48.828125
1755830246.4481428,118.1640625,109.375,-581.54296875,-68.84765625
1755830246.4531012,-18.5546875,75.1953125,-578.125,-69.82421875
1755830246.4580595,-231.4453125,-111.81640625,-739.74609375,-87.40234375
1755830246.463018,-93.26171875,-737.79296875,-978.515625,5.37109375
1755830246.4679763,112.79296875,-597.16796875,-826.66015625,-24.90234375
1755830246.4729347,25.390625,407.71484375,-337.40234375,-119.62890625
1755830246.477893,-192.3828125,137.6953125,-529.78515625,-72.265625
1755830246.4828515,-227.05078125,-116.2109375,-767.578125,-69.82421875
1755830246.4878955,27.83203125,255.37109375,-532.71484375,-63.96484375
1755830246.4929402,119.62890625,420.41015625,-402.34375,-46.38671875
1755830246.4979844,-123.53515625,32.71484375,-683.10546875,-50.78125
1755830246.5030286,-274.4140625,-156.73828125,-841.30859375,-82.03125
1755830246.508073,-49.8046875,146.484375,-649.90234375,-86.42578125
1755830246.5131173,172.36328125,128.90625,-589.84375,-36.1328125
1755830246.5181615,-42.48046875,-273.92578125,-815.4296875,-65.4296875
1755830246.523206,-286.1328125,-215.33203125,-864.2578125,-136.23046875
1755830246.5282502,-92.7734375,109.375,-630.37109375,-81.0546875
1755830246.5332944,138.671875,172.36328125,-565.4296875,-41.9921875
1755830246.538339,65.91796875,-356.93359375,-755.859375,-6.8359375
1755830246.5433831,-221.6796875,-800.29296875,-977.05078125,-63.96484375
1755830246.54575,-240.234375,-20.99609375,-724.12109375,-148.4375
1755830246.5481167,95.703125,317.87109375,-499.0234375,-52.24609375
1755830246.5504832,104.98046875,183.10546875,-548.828125,-42.48046875
1755830246.55285,-191.40625,156.73828125,-664.55078125,-98.14453125
1755830246.5552168,-233.3984375,105.95703125,-759.765625,-71.77734375
1755830246.5575836,68.84765625,-148.92578125,-874.0234375,-11.23046875
1755830246.5599504,155.76171875,-143.5546875,-816.40625,-42.96875
1755830246.5623171,-131.34765625,78.61328125,-705.56640625,-99.12109375
1755830246.564684,-275.390625,118.65234375,-748.53515625,-100.09765625
1755830246.5670505,0.48828125,-155.76171875,-873.53515625,-25.87890625
1755830246.5694172,180.6640625,-264.16015625,-842.28515625,-17.08984375
1755830246.571784,-45.8984375,-11.23046875,-692.3828125,-79.58984375
1755830246.579216,-255.37109375,-196.77734375,-932.6171875,-88.37890625
1755830246.5866475,-94.23828125,-399.90234375,-1000.0,-34.66796875
1755830246.5940795,191.40625,-908.69140625,-1000.0,39.55078125
1755830246.6015117,-4.8828125,-369.62890625,-749.0234375,-97.65625
1755830246.6089437,-269.04296875,205.56640625,-571.77734375,-130.37109375
1755830246.6163752,-154.78515625,-469.23828125,-900.87890625,-24.4140625
1755830246.623807,80.078125,-558.10546875,-918.45703125,-24.90234375
1755830246.631239,51.7578125,138.18359375,-571.77734375,-99.609375
1755830246.638671,-189.453125,248.53515625,-543.45703125,-105.46875
1755830246.646103,-232.91015625,-339.35546875,-883.7890625,-61.5234375
1755830246.6535344,-5.37109375,-236.328125,-813.96484375,-60.05859375
1755830246.6609664,116.2109375,383.30078125,-434.5703125,-74.21875
1755830246.6612446,-98.6328125,236.81640625,-527.34375,-64.94140625
1755830246.6615229,-273.4375,-131.34765625,-831.54296875,-68.359375
1755830246.661801,-60.546875,-152.34375,-827.63671875,-59.5703125
1755830246.662079,147.94921875,122.55859375,-582.03125,-62.98828125
1755830246.6623576,-15.625,259.27734375,-517.578125,-64.94140625
1755830246.6626358,-214.35546875,-594.23828125,-925.29296875,-14.6484375
1755830246.6629138,-165.0390625,-621.58203125,-958.49609375,-78.125
1755830246.663192,68.359375,316.40625,-520.01953125,-100.5859375
1755830246.6634705,72.265625,195.3125,-564.453125,-38.57421875
1755830246.6637485,-208.0078125,-415.0390625,-923.828125,-54.6875
1755830246.6640267,-250.48828125,-178.7109375,-880.37109375,-105.46875
1755830246.664305,37.59765625,328.125,-572.265625,-71.77734375
1755830246.6679723,137.6953125,118.1640625,-598.14453125,-18.06640625
1755830246.6716394,-146.484375,-225.09765625,-910.64453125,-56.15234375
1755830246.6753068,-296.38671875,15.13671875,-825.68359375,-111.328125
1755830246.6789742,-9.27734375,239.74609375,-671.38671875,-62.98828125
1755830246.6826415,205.078125,-136.71875,-791.015625,8.7890625
1755830246.6863089,-50.78125,-563.96484375,-1000.0,-36.62109375
1755830246.689976,-293.9453125,-477.5390625,-1000.0,-115.234375
1755830246.693643,-86.9140625,-286.1328125,-958.984375,-78.125
1755830246.6973107,198.73046875,-408.69140625,-911.1328125,12.20703125
1755830246.7009778,63.96484375,-985.3515625,-1000.0,8.30078125
1755830246.7046452,-295.41015625,-450.1953125,-898.92578125,-129.39453125
1755830246.7083125,-188.96484375,47.36328125,-787.59765625,-85.9375
1755830246.7120464,107.91015625,12.6953125,-740.72265625,-26.85546875
1755830246.71578,41.9921875,262.6953125,-530.76171875,-79.1015625
1755830246.719514,-216.30859375,240.234375,-576.171875,-93.26171875
1755830246.7232478,-211.9140625,-16.6015625,-788.0859375,-47.8515625
1755830246.7269814,58.59375,-64.453125,-814.94140625,-9.765625
1755830246.7307153,136.23046875,-130.859375,-812.98828125,-12.6953125
1755830246.7344491,-157.2265625,-124.51171875,-848.14453125,-75.1953125
1755830246.7381828,-260.7421875,-157.71484375,-901.85546875,-61.03515625
1755830246.741917,34.1796875,-694.82421875,-1000.0,8.30078125
1755830246.7456503,127.44140625,-347.16796875,-811.5234375,-65.4296875
1755830246.7493842,-121.58203125,293.9453125,-594.23828125,-121.09375
1755830246.753118,-264.6484375,-218.26171875,-847.65625,-62.5
1755830246.756923,-92.7734375,-496.09375,-942.3828125,-31.25
1755830246.760728,103.515625,124.0234375,-627.9296875,-81.0546875
1755830246.7645326,0.48828125,343.75,-508.30078125,-72.75390625
1755830246.7683375,-223.6328125,-182.12890625,-806.640625,-52.24609375
1755830246.7721424,-164.55078125,-376.46484375,-967.7734375,-74.70703125
1755830246.775947,98.14453125,-142.08984375,-839.35546875,-51.26953125
1755830246.7797525,81.54296875,-53.7109375,-775.87890625,-57.6171875
1755830246.7835572,-154.296875,-516.11328125,-903.80859375,-42.48046875
1755830246.787362,-223.14453125,-698.73046875,-945.80078125,-62.5
1755830246.7911668,-18.06640625,155.2734375,-627.9296875,-109.375
1755830246.7949717,143.5546875,324.21875,-490.72265625,-43.9453125
1755830246.7987766,-104.4921875,-159.1796875,-811.5234375,-50.29296875
1755830246.802589,-288.57421875,-252.9296875,-942.3828125,-101.5625
1755830246.8064013,-65.4296875,181.640625,-646.97265625,-92.28515625
1755830246.8102136,159.66796875,271.97265625,-541.015625,-53.22265625
1755830246.814026,-30.2734375,-206.54296875,-827.63671875,-69.82421875
1755830246.8178382,-288.57421875,-288.57421875,-943.84765625,-110.3515625
1755830246.8216505,-125.9765625,-189.453125,-929.19921875,-69.3359375
1755830246.8254628,141.11328125,-163.57421875,-868.65234375,-32.71484375
1755830246.8292751,66.40625,-626.953125,-940.91796875,-14.6484375
1755830246.8330874,-263.671875,-582.51953125,-940.91796875,-109.375
1755830246.8368998,-221.6796875,134.765625,-691.40625,-126.953125
1755830246.840712,133.30078125,18.06640625,-750.0,-18.5546875
1755830246.8445244,141.11328125,-77.63671875,-799.8046875,-37.109375
1755830246.8481743,-179.19921875,77.63671875,-735.3515625,-94.23828125
1755830246.8518243,-248.53515625,47.8515625,-779.296875,-79.1015625
1755830246.8554742,42.96875,-242.1875,-889.16015625,-27.83203125
1755830246.8591242,149.90234375,-235.3515625,-880.859375,-29.78515625
1755830246.862774,-101.07421875,-33.203125,-820.3125,-83.984375
1755830246.866424,-258.30078125,-299.31640625,-982.421875,-78.125
1755830246.8700745,-7.32421875,-730.95703125,-1000.0,-0.48828125
1755830246.8737242,175.29296875,-862.79296875,-972.65625,-20.99609375
1755830246.8773742,-94.7265625,-142.578125,-756.8359375,-155.2734375
1755830246.881024,-284.66796875,59.08203125,-749.0234375,-128.90625
1755830246.884674,-136.71875,-232.421875,-952.1484375,-73.73046875
1755830246.888324,104.00390625,-43.9453125,-795.8984375,-76.171875
1755830246.8945415,39.55078125,208.984375,-610.3515625,-102.05078125
1755830246.9007592,-209.9609375,10.7421875,-775.390625,-96.6796875
1755830246.9069767,-185.546875,-305.6640625,-981.93359375,-70.3125
1755830246.9131944,58.59375,-9.765625,-764.6484375,-73.73046875
1755830246.919412,108.88671875,184.5703125,-588.37890625,-49.31640625
1755830246.9256296,-141.6015625,-255.859375,-856.93359375,-45.41015625
1755830246.931847,-234.375,-825.1953125,-1000.0,-42.48046875
1755830246.9380648,-29.296875,-545.8984375,-905.2734375,-71.2890625
1755830246.9442823,97.16796875,241.2109375,-568.359375,-100.09765625
1755830246.9505,-71.77734375,-44.921875,-678.7109375,-56.15234375
1755830246.9567175,-274.90234375,-679.6875,-1000.0,-69.3359375
1755830246.9629352,-152.83203125,-206.0546875,-833.984375,-117.1875
1755830246.9666324,99.609375,275.390625,-554.6875,-71.77734375
1755830246.9703295,-4.8828125,7.8125,-693.84765625,-35.15625
1755830246.974027,-242.1875,-285.64453125,-948.73046875,-50.29296875
1755830246.9777238,-169.43359375,-109.86328125,-877.44140625,-86.9140625
1755830246.981421,107.421875,68.359375,-775.87890625,-82.03125
1755830246.985118,94.7265625,-381.34765625,-866.2109375,-47.8515625
1755830246.988815,-221.19140625,-645.99609375,-1000.0,-108.88671875
1755830246.9925122,-267.578125,-204.58984375,-944.3359375,-151.85546875
1755830246.9962094,40.0390625,-82.51953125,-799.31640625,-67.87109375
1755830246.9999063,106.4453125,-278.3203125,-867.1875,-69.82421875
1755830247.0036037,-195.80078125,-287.59765625,-969.23828125,-132.8125
1755830247.0073009,-309.5703125,-158.203125,-965.33203125,-119.62890625
1755830247.0098674,-41.9921875,-8.30078125,-870.1171875,-85.44921875
1755830247.012434,202.63671875,-520.01953125,-911.62109375,13.671875
1755830247.0150008,-57.6171875,-779.78515625,-959.9609375,-41.9921875
1755830247.0175674,-354.98046875,-38.0859375,-792.48046875,-179.19921875
1755830247.020134,-114.2578125,25.87890625,-796.38671875,-64.453125
1755830247.0227008,145.99609375,-293.45703125,-928.22265625,18.5546875
1755830247.0252674,-15.625,-274.4140625,-907.2265625,-61.03515625
1755830247.027834,-283.203125,-15.625,-824.21875,-113.28125
1755830247.0304005,-158.203125,-202.1484375,-935.05859375,-35.64453125
1755830247.032967,119.140625,-327.1484375,-875.48828125,-14.16015625
1755830247.035534,55.17578125,130.859375,-587.890625,-69.3359375
1755830247.0381005,-204.1015625,20.99609375,-755.859375,-69.82421875
1755830247.0418513,-196.2890625,-443.359375,-1000.0,-19.04296875
1755830247.0456023,75.1953125,-758.7890625,-972.16796875,11.71875
1755830247.0493531,105.46875,-198.2421875,-750.48828125,-87.40234375
1755830247.0531042,-137.20703125,208.49609375,-614.74609375,-100.09765625
1755830247.056855,-229.98046875,-204.1015625,-858.3984375,-47.36328125
1755830247.060606,4.8828125,-359.86328125,-972.16796875,-32.71484375
1755830247.0643568,160.15625,17.08984375,-689.453125,-60.546875
1755830247.0681076,-53.7109375,220.21484375,-649.90234375,-93.26171875
1755830247.0718586,-218.26171875,-496.58203125,-927.734375,-32.71484375
1755830247.0756094,-88.8671875,-759.27734375,-988.28125,-42.96875
1755830247.0793605,85.44921875,162.59765625,-644.53125,-121.09375
1755830247.0831113,23.4375,282.2265625,-553.7109375,-82.03125
1755830247.08698,-243.65234375,-148.4375,-866.69921875,-89.35546875
1755830247.0908484,-196.77734375,-211.42578125,-958.0078125,-86.9140625
1755830247.094717,85.9375,-105.95703125,-861.81640625,-51.7578125
1755830247.0985854,82.03125,17.578125,-749.51171875,-52.24609375
1755830247.102454,-186.5234375,-376.953125,-893.5546875,-67.3828125
1755830247.1063223,-257.8125,-597.16796875,-1000.0,-84.9609375
1755830247.110191,8.7890625,-262.6953125,-953.61328125,-68.84765625
1755830247.1140597,156.25,-109.375,-845.703125,-42.96875
1755830247.117928,-76.66015625,-631.34765625,-969.23828125,-26.85546875
1755830247.1217966,-311.03515625,-476.07421875,-971.19140625,-117.67578125
1755830247.1256652,-70.80078125,108.88671875,-752.44140625,-94.23828125
1755830247.1295338,183.59375,-48.828125,-779.78515625,-10.25390625
1755830247.1331258,-38.0859375,-137.6953125,-838.8671875,-54.6875
1755830247.1367176,-295.41015625,-14.6484375,-805.6640625,-104.98046875
1755830247.1403096,-125.48828125,-9.765625,-833.984375,-66.40625
1755830247.1439016,145.5078125,-62.98828125,-799.8046875,-35.64453125
1755830247.1474934,62.01171875,-62.01171875,-773.92578125,-54.6875
1755830247.1510854,-191.40625,-368.65234375,-916.015625,-61.03515625
1755830247.1546774,-178.7109375,-521.484375,-1000.0,-67.87109375
1755830247.1582692,130.37109375,-664.0625,-1000.0,0.48828125
1755830247.1618612,128.41796875,-798.33984375,-925.78125,-26.3671875
1755830247.1654532,-231.4453125,-186.5234375,-753.41796875,-150.390625
1755830247.169045,-260.25390625,-93.75,-866.2109375,-106.93359375
1755830247.172637,22.94921875,-166.50390625,-895.99609375,-59.5703125
1755830247.176445,141.11328125,64.94140625,-692.87109375,-58.10546875
1755830247.1802528,-104.4921875,182.6171875,-608.3984375,-98.6328125
1755830247.1840606,-259.27734375,-93.26171875,-817.87109375,-84.47265625
1755830247.1878686,-48.33984375,-415.52734375,-965.33203125,-50.29296875
1755830247.1916766,151.85546875,-137.6953125,-783.203125,-66.89453125
1755830247.1954844,-0.48828125,-174.31640625,-855.46875,-66.89453125
1755830247.1992922,-255.859375,-494.140625,-1000.0,-83.0078125
1755830247.2031002,-127.44140625,-796.875,-1000.0,-48.828125
1755830247.2069082,104.98046875,-527.83203125,-927.734375,-79.1015625
1755830247.210716,17.08984375,214.35546875,-684.08203125,-131.34765625
1755830247.2145238,-193.359375,-226.07421875,-835.44921875,-69.3359375
1755830247.2183318,-199.70703125,-668.45703125,-982.421875,-41.50390625
1755830247.2232022,17.08984375,1.953125,-702.1484375,-76.171875
1755830247.2280726,108.88671875,267.08984375,-604.98046875,-55.17578125
1755830247.232943,-128.41796875,-236.328125,-850.5859375,-44.921875
1755830247.2378137,-255.37109375,-430.17578125,-1000.0,-73.2421875
1755830247.242684,-9.27734375,-125.48828125,-926.26953125,-48.33984375
1755830247.2475543,161.62109375,-118.1640625,-891.11328125,-24.4140625
1755830247.2524247,-29.78515625,-589.84375,-956.0546875,-12.20703125
1755830247.2572951,-284.1796875,-850.09765625,-999.51171875,-60.546875
1755830247.2621655,-177.734375,-172.8515625,-852.5390625,-143.5546875
1755830247.267036,107.421875,177.734375,-641.11328125,-64.453125
1755830247.2719064,0.48828125,-222.16796875,-826.171875,-34.66796875
1755830247.2767768,-277.34375,-469.23828125,-1000.0,-92.7734375
1755830247.2804737,-214.35546875,-162.59765625,-905.76171875,-121.09375
1755830247.2841702,93.26171875,64.453125,-704.1015625,-56.640625
1755830247.2878668,83.49609375,-320.80078125,-835.44921875,-42.48046875
1755830247.2915635,-235.83984375,-410.64453125,-929.6875,-131.34765625
1755830247.2952602,-256.34765625,-58.59375,-786.1328125,-128.90625
1755830247.2989569,92.7734375,-297.36328125,-911.1328125,-3.41796875
1755830247.3026533,166.015625,-723.14453125,-1000.0,-0.48828125
1755830247.30635,-177.734375,-463.8671875,-878.41796875,-118.1640625
1755830247.310047,-303.22265625,-9.765625,-718.75,-135.25390625
1755830247.3137434,3.90625,-161.62109375,-784.1796875,-35.15625
1755830247.31744,177.734375,-339.84375,-832.03125,-14.6484375
1755830247.3211367,-85.9375,13.18359375,-621.09375,-120.60546875
1755830247.32636,-274.90234375,54.19921875,-698.73046875,-121.09375
1755830247.3315833,-69.82421875,-417.96875,-963.8671875,-20.99609375
1755830247.3368063,151.85546875,-424.8046875,-905.2734375,-7.8125
1755830247.3420296,-1.953125,27.83203125,-668.45703125,-91.796875
1755830247.3472528,-257.32421875,6.8359375,-770.99609375,-95.21484375
1755830247.352476,-119.140625,-633.7890625,-1000.0,23.4375
1755830247.3576994,145.5078125,-782.71484375,-946.77734375,9.765625
1755830247.362923,48.33984375,-21.97265625,-675.29296875,-118.65234375
1755830247.368146,-205.56640625,60.05859375,-701.171875,-98.6328125
1755830247.373369,-233.88671875,-445.80078125,-988.28125,-55.17578125
1755830247.3785925,12.20703125,-293.9453125,-872.55859375,-49.31640625
1755830247.3838155,124.0234375,89.35546875,-660.15625,-53.22265625
1755830247.3862393,-124.0234375,-58.10546875,-779.78515625,-71.2890625
1755830247.3886628,-286.62109375,-354.98046875,-985.3515625,-86.9140625
1755830247.3910866,-74.21875,-232.91015625,-941.89453125,-71.77734375
1755830247.39351,123.046875,127.44140625,-663.0859375,-49.8046875
1755830247.395934,-42.48046875,-55.17578125,-735.3515625,-48.33984375
1755830247.3983574,-271.97265625,-602.05078125,-998.53515625,-72.75390625
1755830247.4007812,-160.64453125,-685.546875,-1000.0,-88.37890625
1755830247.403205,80.56640625,-215.33203125,-877.44140625,-86.9140625
1755830247.4056284,26.85546875,-140.625,-782.71484375,-69.3359375
1755830247.4080522,-234.86328125,-660.64453125,-988.76953125,-71.77734375
1755830247.4104755,-253.41796875,-420.8984375,-978.515625,-113.76953125
1755830247.4128995,32.2265625,47.36328125,-771.97265625,-86.42578125
1755830247.4166417,117.1875,-221.19140625,-800.78125,-21.484375
1755830247.4203837,-161.62109375,-868.65234375,-1000.0,-26.85546875
1755830247.424126,-331.0546875,-505.859375,-948.73046875,-143.5546875
1755830247.427868,-31.25,16.11328125,-747.55859375,-104.4921875
1755830247.43161,159.1796875,-146.484375,-804.19921875,-31.73828125
1755830247.4353523,-103.515625,-446.2890625,-988.76953125,-61.5234375
1755830247.4390943,-297.36328125,-586.42578125,-1000.0,-100.09765625
1755830247.4428363,-90.8203125,-388.671875,-980.46875,-104.4921875
1755830247.4465787,176.7578125,-578.125,-975.09765625,-12.6953125
1755830247.450321,-17.08984375,-858.88671875,-978.515625,-57.12890625
1755830247.454063,-341.796875,-306.15234375,-923.33984375,-203.125
1755830247.4578052,-156.25,-67.87109375,-853.02734375,-113.76953125
1755830247.4616146,132.8125,-147.94921875,-855.46875,-60.05859375
1755830247.465424,28.80859375,22.94921875,-747.55859375,-99.609375
1755830247.4692338,-250.0,103.515625,-708.984375,-113.28125
1755830247.4730432,-219.23828125,-127.44140625,-904.296875,-68.84765625
1755830247.476853,63.4765625,-185.546875,-881.8359375,-27.34375
1755830247.4806623,119.140625,-243.65234375,-864.74609375,-38.0859375
1755830247.4844718,-157.2265625,-341.30859375,-989.2578125,-76.171875
1755830247.4882812,-254.8828125,-332.51953125,-997.55859375,-65.91796875
1755830247.4920907,-3.41796875,-706.0546875,-1000.0,-28.3203125
1755830247.4959002,72.75390625,-288.0859375,-744.140625,-101.5625
1755830247.4997098,-145.99609375,92.7734375,-660.15625,-106.4453125
1755830247.5035193,-268.5546875,-540.52734375,-983.3984375,-59.08203125
1755830247.5084848,-92.28515625,-566.40625,-924.8046875,-72.75390625
1755830247.51345,83.0078125,50.29296875,-665.0390625,-105.95703125
1755830247.5184157,-69.3359375,231.4453125,-584.9609375,-125.0
1755830247.523381,-271.484375,-411.62109375,-827.1484375,-70.3125
1755830247.5283463,-177.734375,-736.328125,-972.65625,-51.26953125
1755830247.5333118,61.03515625,-253.90625,-846.6796875,-79.58984375
1755830247.5382774,30.76171875,-174.8046875,-832.51953125,-84.9609375
1755830247.543243,-208.49609375,-608.88671875,-924.31640625,-50.78125
1755830247.5482082,-224.12109375,-849.12109375,-1000.0,-52.24609375
1755830247.5531738,-20.5078125,-144.04296875,-791.9921875,-137.20703125
1755830247.558139,88.8671875,164.55078125,-579.58984375,-99.609375
1755830247.5631046,-168.45703125,-123.046875,-778.3203125,-109.375
1755830247.5670242,-291.015625,-169.43359375,-849.609375,-125.0
1755830247.5709436,-17.08984375,-118.65234375,-779.78515625,-76.66015625
1755830247.5748632,154.78515625,-29.296875,-687.98828125,-57.12890625
1755830247.5787826,-63.4765625,-219.23828125,-813.96484375,-80.56640625
1755830247.5827022,-295.8984375,-330.078125,-954.58984375,-117.1875
1755830247.5866218,-100.09765625,-332.51953125,-974.609375,-76.171875
1755830247.5905411,153.80859375,-325.68359375,-913.0859375,-36.1328125
1755830247.5944607,12.20703125,-208.0078125,-799.8046875,-77.63671875
1755830247.59838,-277.34375,-128.90625,-821.2890625,-140.625
1755830247.6022997,-211.42578125,-16.6015625,-814.94140625,-122.55859375
1755830247.606219,119.140625,-119.62890625,-800.29296875,-18.5546875
1755830247.610139,118.1640625,-634.27734375,-961.42578125,6.8359375
1755830247.617292,-244.62890625,-386.23046875,-893.06640625,-114.74609375
1755830247.6244454,-277.34375,150.390625,-640.625,-117.1875
1755830247.6315987,62.5,-151.85546875,-766.11328125,-10.7421875
1755830247.6387522,149.90234375,-280.2734375,-828.125,-9.27734375
1755830247.6459055,-165.0390625,-15.625,-665.0390625,-100.5859375
1755830247.653059,-271.484375,-264.6484375,-876.46484375,-77.63671875
1755830247.6602125,-3.90625,-596.6796875,-1000.0,-12.20703125
1755830247.6673656,152.34375,-331.0546875,-839.84375,-26.3671875
1755830247.674519,-62.5,107.421875,-591.796875,-80.078125
1755830247.6816723,-267.08984375,86.9140625,-664.55078125,-91.796875
1755830247.6888258,-41.50390625,-555.6640625,-945.80078125,34.1796875
1755830247.695979,164.55078125,-913.0859375,-982.91015625,13.671875
1755830247.6963136,-50.78125,-132.32421875,-681.640625,-154.296875
1755830247.696648,-262.6953125,41.50390625,-646.484375,-118.1640625
1755830247.6969824,-188.4765625,-276.3671875,-883.7890625,-79.1015625
1755830247.697317,41.9921875,76.66015625,-613.76953125,-103.515625
1755830247.6976514,62.5,347.16796875,-366.69921875,-96.19140625
1755830247.6979856,-156.25,-190.91796875,-757.8125,-80.56640625
1755830247.6983202,-305.17578125,-609.86328125,-983.88671875,-106.4453125
1755830247.698655,270.5078125,-328.61328125,-806.640625,-110.83984375
1755830247.6989892,978.515625,272.94921875,-450.68359375,-104.98046875
1755830247.6993237,918.45703125,107.91015625,-543.45703125,-92.28515625
1755830247.699658,575.68359375,-391.6015625,-892.08984375,-102.5390625
1755830247.6999924,579.1015625,-18.06640625,-659.1796875,-127.9296875
1755830247.7035882,631.8359375,369.140625,-369.140625,-121.58203125
1755830247.7071838,311.03515625,-57.12890625,-591.796875,-93.26171875
1755830247.7107797,-13.671875,-700.68359375,-954.58984375,-120.60546875
1755830247.7143755,-60.05859375,-229.98046875,-734.375,-204.1015625
1755830247.717971,154.78515625,188.4765625,-439.453125,-160.15625
1755830247.7215672,74.70703125,-376.46484375,-692.87109375,-114.74609375
1755830247.7251627,-285.64453125,-718.26171875,-945.80078125,-200.68359375
1755830247.7287586,-349.609375,-201.171875,-697.75390625,-271.97265625
1755830247.7323544,-94.7265625,166.015625,-389.16015625,-228.515625
1755830247.73595,-41.9921875,-250.0,-574.70703125,-156.25
1755830247.7395458,-342.7734375,-1000.0,-1000.0,-163.0859375
1755830247.7431417,-564.453125,-562.98828125,-794.921875,-314.453125
1755830247.7468965,-323.73046875,176.26953125,-323.73046875,-319.82421875
1755830247.7506514,-161.62109375,198.2421875,-220.21484375,-270.01953125
1755830247.7544062,-436.5234375,159.66796875,-257.32421875,-328.125
1755830247.758161,-660.15625,198.2421875,-272.94921875,-380.859375
1755830247.761916,-462.890625,144.53125,-325.68359375,-357.91015625
1755830247.7656708,-273.92578125,-154.296875,-479.98046875,-355.95703125
1755830247.7694254,-516.6015625,-54.6875,-391.11328125,-450.68359375
1755830247.7731802,-808.10546875,193.84765625,-280.76171875,-533.203125
1755830247.776935,-704.1015625,145.01953125,-320.80078125,-502.44140625
1755830247.78069,-447.75390625,-247.55859375,-573.73046875,-475.5859375
1755830247.7844448,-568.84765625,-29.296875,-447.75390625,-549.8046875
1755830247.7881997,-871.09375,333.984375,-229.00390625,-596.19140625
1755830247.7919624,-853.02734375,-37.59765625,-514.16015625,-582.03125
1755830247.7957249,-581.0546875,-164.55078125,-590.8203125,-540.52734375
1755830247.7994876,-547.8515625,287.59765625,-254.39453125,-576.171875
1755830247.80325,-824.21875,445.80078125,-195.80078125,-624.0234375
1755830247.8070128,-868.65234375,-155.2734375,-645.99609375,-554.19921875
1755830247.8107753,-593.75,-478.515625,-866.2109375,-508.30078125
1755830247.814538,-485.3515625,226.07421875,-335.9375,-571.77734375
1755830247.8183007,-684.08203125,664.0625,-67.87109375,-581.0546875
1755830247.8220632,-787.109375,-153.3203125,-633.30078125,-473.6328125
1755830247.825826,-610.83984375,-554.6875,-870.1171875,-470.703125
1755830247.8295884,-442.87109375,453.61328125,-250.9765625,-559.5703125
1755830247.8333511,-538.57421875,706.0546875,-66.89453125,-523.4375
1755830247.8370776,-776.3671875,309.5703125,-384.27734375,-520.01953125
1755830247.8408043,-683.59375,293.45703125,-453.61328125,-520.99609375
1755830247.8445308,-409.66796875,666.015625,-136.23046875,-486.328125
1755830247.8482575,-409.1796875,564.453125,-137.20703125,-446.2890625
1755830247.851984,-676.26953125,105.95703125,-526.85546875,-459.9609375
1755830247.8557105,-705.56640625,-58.10546875,-714.35546875,-483.88671875
1755830247.8594372,-426.26953125,160.64453125,-539.0625,-467.7734375
1755830247.8631637,-315.4296875,444.82421875,-347.16796875,-427.734375
1755830247.8668904,-511.71875,-292.96875,-787.109375,-386.23046875
1755830247.870617,-711.42578125,-254.8828125,-818.84765625,-469.7265625
1755830247.8743436,-485.83984375,649.90234375,-307.6171875,-451.171875
1755830247.87807,-217.7734375,584.47265625,-300.29296875,-347.65625
1755830247.881829,-415.52734375,363.28125,-469.7265625,-361.81640625
1755830247.8855877,-660.64453125,474.12109375,-424.8046875,-407.2265625
1755830247.8893466,-471.19140625,631.34765625,-325.68359375,-378.41796875
1755830247.8931055,-213.8671875,538.0859375,-369.62890625,-363.28125
1755830247.8968642,-350.5859375,490.234375,-386.23046875,-401.3671875
1755830247.900623,-609.375,168.9453125,-650.87890625,-395.99609375
1755830247.904382,-566.40625,74.70703125,-783.203125,-413.0859375
1755830247.908141,-242.67578125,-117.1875,-809.5703125,-332.51953125
1755830247.9118996,-263.671875,-540.0390625,-965.33203125,-324.70703125
1755830247.9156585,-642.578125,189.94140625,-633.7890625,-501.953125
1755830247.9194171,-637.6953125,471.19140625,-541.9921875,-440.91796875
1755830247.923176,-324.21875,351.07421875,-574.70703125,-344.23828125
1755830247.9280665,-229.98046875,684.08203125,-284.1796875,-355.95703125
1755830247.9329565,-453.61328125,747.55859375,-266.11328125,-354.98046875
1755830247.937847,-554.6875,462.890625,-520.99609375,-306.15234375
1755830247.9427366,-317.3828125,401.85546875,-543.45703125,-271.484375
1755830247.9476268,-121.09375,689.94140625,-276.85546875,-260.25390625
1755830247.952517,-284.66796875,530.76171875,-359.86328125,-254.39453125
1755830247.9574072,-512.20703125,202.1484375,-636.71875,-278.80859375
1755830247.9622974,-364.2578125,-166.9921875,-868.1640625,-233.3984375
1755830247.9671874,-150.87890625,322.75390625,-496.09375,-253.90625
1755830247.9720776,-221.6796875,910.64453125,-114.74609375,-247.55859375
1755830247.9769678,-424.31640625,309.08203125,-576.171875,-185.546875
1755830247.981858,-397.4609375,67.3828125,-799.8046875,-215.33203125
1755830247.984574,-160.64453125,694.82421875,-371.09375,-271.484375
1755830247.98729,-103.515625,985.3515625,-119.140625,-235.3515625
1755830247.990006,-343.75,483.88671875,-496.58203125,-201.171875
1755830247.992722,-456.0546875,278.3203125,-744.62890625,-239.2578125
1755830247.995438,-210.9375,699.21875,-428.7109375,-245.60546875
1755830247.9981542,-59.08203125,761.23046875,-326.171875,-229.4921875
1755830248.0008702,-256.34765625,145.5078125,-684.08203125,-205.078125
1755830248.0035863,-465.33203125,-263.18359375,-934.08203125,-244.62890625
1755830248.0063024,-351.07421875,553.7109375,-523.92578125,-349.12109375
1755830248.0090182,-94.7265625,999.51171875,-199.70703125,-273.4375
1755830248.0117342,-211.9140625,546.38671875,-512.6953125,-235.3515625
1755830248.0144503,-487.3046875,355.95703125,-698.73046875,-306.15234375
1755830248.0192964,-395.99609375,609.86328125,-501.46484375,-289.0625
1755830248.0241425,-130.37109375,573.73046875,-458.49609375,-246.58203125
1755830248.0289886,-250.48828125,545.8984375,-449.70703125,-334.47265625
1755830248.0338347,-589.35546875,608.3984375,-470.703125,-445.3125
1755830248.0386808,-578.125,628.90625,-475.09765625,-443.359375
1755830248.0435271,-315.4296875,550.29296875,-532.2265625,-422.8515625
1755830248.0483732,-304.6875,-100.5859375,-836.9140625,-428.7109375
1755830248.0532193,-692.87109375,-180.6640625,-859.375,-587.40234375
1755830248.0580654,-903.80859375,670.41015625,-467.7734375,-717.7734375
1755830248.0629115,-634.765625,628.41796875,-454.1015625,-663.57421875
1755830248.0677576,-488.76953125,473.14453125,-459.9609375,-643.06640625
1755830248.0726037,-756.34765625,608.88671875,-383.30078125,-719.23828125
1755830248.0763214,-970.703125,690.4296875,-401.85546875,-748.53515625
1755830248.080039,-745.1171875,439.453125,-618.65234375,-682.6171875
1755830248.0837567,-546.38671875,585.9375,-491.2109375,-725.5859375
1755830248.0874743,-704.1015625,762.6953125,-328.61328125,-770.5078125
1755830248.091192,-938.4765625,580.56640625,-548.828125,-754.8828125
1755830248.0949097,-781.73828125,128.41796875,-807.6171875,-652.83203125
1755830248.098627,-479.98046875,-126.46484375,-886.71875,-621.09375
1755830248.102345,-566.89453125,644.53125,-488.76953125,-708.49609375
1755830248.106063,-812.98828125,968.75,-309.08203125,-686.5234375
1755830248.1097803,-756.34765625,316.89453125,-722.65625,-581.54296875
1755830248.113498,-499.0234375,184.08203125,-839.35546875,-576.171875
1755830248.1172156,-463.37890625,977.5390625,-298.828125,-631.34765625
1755830248.1222274,-665.0390625,928.22265625,-349.12109375,-580.078125
1755830248.1272392,-789.55078125,589.84375,-735.83984375,-580.078125
1755830248.1322508,-563.96484375,764.16015625,-631.34765625,-579.1015625
1755830248.1372626,-382.32421875,999.51171875,-329.1015625,-571.77734375
1755830248.1422744,-586.9140625,916.9921875,-426.7578125,-586.9140625
1755830248.147286,-789.0625,550.29296875,-810.05859375,-578.61328125
1755830248.1522975,-641.6015625,541.015625,-814.94140625,-569.3359375
1755830248.1573095,-418.45703125,898.4375,-516.11328125,-574.21875
1755830248.162321,-522.4609375,945.80078125,-492.1875,-580.56640625
1755830248.1673331,-750.9765625,112.3046875,-913.57421875,-545.41015625
1755830248.1723447,-781.73828125,231.4453125,-890.13671875,-624.51171875
1755830248.1773565,-540.52734375,999.51171875,-430.6640625,-647.94921875
1755830248.1811514,-500.9765625,893.06640625,-454.58984375,-594.23828125
1755830248.1849463,-774.4140625,854.00390625,-626.953125,-605.46875
1755830248.1887412,-783.203125,977.5390625,-599.12109375,-589.35546875
1755830248.192536,-479.4921875,967.7734375,-492.67578125,-535.64453125
1755830248.1963308,-342.28515625,959.47265625,-438.4765625,-505.37109375
1755830248.2001257,-552.734375,840.8203125,-703.125,-488.28125
1755830248.2039206,-683.10546875,823.73046875,-872.0703125,-485.3515625
1755830248.2077155,-418.9453125,968.26171875,-625.9765625,-441.40625
1755830248.2115102,-172.8515625,916.015625,-548.828125,-358.3984375
1755830248.215305,-330.078125,934.5703125,-741.2109375,-342.7734375
1755830248.2191,-569.3359375,958.0078125,-718.75,-376.953125
1755830248.222895,-423.33984375,999.51171875,-508.7890625,-359.375
1755830248.225417,-83.0078125,725.09765625,-742.1875,-225.5859375
1755830248.2279384,-204.58984375,579.1015625,-877.9296875,-253.90625
1755830248.2304602,-518.06640625,981.4453125,-596.6796875,-364.2578125
1755830248.232982,-404.78515625,977.5390625,-659.66796875,-289.55078125
1755830248.2355037,-113.76953125,955.078125,-617.67578125,-219.23828125
1755830248.2380252,-94.7265625,964.84375,-653.80859375,-206.0546875
1755830248.240547,-372.55859375,978.515625,-723.6328125,-254.39453125
1755830248.2430687,-378.41796875,948.2421875,-804.6875,-207.51953125
1755830248.2455904,-60.05859375,893.5546875,-834.47265625,-144.53125
1755830248.2481122,41.50390625,943.84765625,-525.87890625,-172.8515625
1755830248.250634,-182.6171875,999.51171875,-533.69140625,-182.12890625
1755830248.2531557,-286.1328125,888.18359375,-831.54296875,-131.34765625
1755830248.2570152,-54.19921875,723.6328125,-991.2109375,-53.22265625
1755830248.2608745,73.2421875,929.19921875,-615.72265625,-124.51171875
1755830248.264734,-85.9375,999.51171875,-309.5703125,-155.76171875
1755830248.2685935,-245.1171875,849.609375,-715.33203125,-91.30859375
1755830248.2724528,-122.0703125,830.56640625,-854.00390625,-113.76953125
1755830248.2763124,102.05078125,967.7734375,-535.15625,-130.859375
1755830248.280172,40.52734375,999.51171875,-552.24609375,-100.09765625
1755830248.2840312,-181.15234375,777.83203125,-853.02734375,-49.8046875
1755830248.287891,-169.43359375,670.8984375,-945.80078125,-45.41015625
1755830248.2917502,53.22265625,984.375,-544.921875,-84.9609375
1755830248.2956097,145.5078125,973.6328125,-394.04296875,-6.8359375
1755830248.299469,-103.515625,940.91796875,-706.0546875,-20.01953125
1755830248.3030918,-211.42578125,962.40234375,-757.8125,-42.96875
1755830248.3067143,53.7109375,972.16796875,-457.03125,16.11328125
1755830248.310337,250.0,965.33203125,-333.0078125,76.66015625
1755830248.3139598,51.7578125,956.54296875,-671.38671875,64.453125
1755830248.3175824,-165.52734375,961.9140625,-816.40625,24.4140625
1755830248.3212051,40.52734375,956.54296875,-722.16796875,76.66015625
1755830248.324828,275.390625,999.51171875,-622.0703125,107.91015625
1755830248.3284504,159.1796875,616.69921875,-843.75,124.51171875
1755830248.3320732,-143.5546875,584.9609375,-932.6171875,28.80859375
1755830248.335696,-83.49609375,999.51171875,-526.3671875,-20.5078125
1755830248.3393185,264.16015625,924.8046875,-542.48046875,120.1171875
1755830248.3429413,216.796875,893.06640625,-715.33203125,111.328125
1755830248.350391,-88.8671875,972.16796875,-621.09375,27.83203125
1755830248.3578403,-78.61328125,970.703125,-652.34375,67.3828125
1755830248.36529,209.9609375,959.47265625,-721.6796875,117.67578125
1755830248.3727393,270.5078125,967.7734375,-640.13671875,99.12109375
1755830248.380189,12.20703125,944.3359375,-613.28125,70.80078125
1755830248.3876386,-90.33203125,999.51171875,-861.81640625,87.890625
1755830248.395088,189.94140625,773.92578125,-983.3984375,169.43359375
1755830248.4025376,341.30859375,531.73828125,-937.01171875,176.26953125
1755830248.409987,45.41015625,933.59375,-647.4609375,50.29296875
1755830248.4174366,-104.00390625,995.60546875,-625.9765625,71.77734375
1755830248.424886,97.16796875,948.2421875,-760.7421875,117.1875
1755830248.4323356,312.5,971.19140625,-581.54296875,105.46875
1755830248.4326844,182.6171875,970.21484375,-434.5703125,79.1015625
1755830248.433033,-60.546875,965.8203125,-613.76953125,77.1484375
1755830248.4333818,23.4375,943.359375,-902.83203125,100.09765625
1755830248.4337306,264.6484375,952.63671875,-627.44140625,100.5859375
1755830248.4340794,248.53515625,990.72265625,-344.23828125,104.4921875
1755830248.4344282,-10.7421875,907.71484375,-705.56640625,102.5390625
1755830248.4347768,-59.5703125,809.5703125,-923.828125,75.1953125
1755830248.4351256,180.6640625,929.19921875,-658.203125,72.75390625
1755830248.4354744,254.39453125,999.51171875,-375.9765625,67.3828125
1755830248.435823,41.50390625,869.62890625,-632.8125,77.1484375
1755830248.4361718,-91.796875,588.37890625,-965.8203125,86.9140625
1755830248.4365206,92.7734375,851.07421875,-756.8359375,62.98828125
1755830248.441185,293.45703125,999.51171875,-447.75390625,80.078125
1755830248.4458494,143.06640625,736.328125,-656.25,112.3046875
1755830248.4505138,-82.51953125,669.921875,-928.22265625,90.33203125
1755830248.455178,39.55078125,959.9609375,-728.02734375,61.03515625
1755830248.4598424,284.66796875,999.51171875,-561.03515625,97.65625
1755830248.4645069,217.7734375,761.23046875,-747.55859375,140.13671875
1755830248.4691713,-20.5078125,-230.95703125,-1000.0,159.66796875
1755830248.4738357,-57.12890625,140.13671875,-881.34765625,34.1796875
1755830248.4785,194.82421875,999.51171875,-488.28125,5.37109375
1755830248.4831643,228.02734375,950.68359375,-451.66015625,62.98828125
1755830248.4878287,-48.33984375,939.94140625,-659.66796875,32.71484375
1755830248.4924932,-101.07421875,956.54296875,-742.1875,37.109375
1755830248.4963078,157.71484375,973.14453125,-652.34375,77.63671875
1755830248.5001223,270.99609375,878.41796875,-720.21484375,85.9375
1755830248.5039372,6.34765625,907.2265625,-712.40234375,21.484375
1755830248.5077522,-148.4375,989.2578125,-633.30078125,21.97265625
1755830248.5115669,104.4921875,961.9140625,-668.9453125,87.890625
1755830248.5153816,299.8046875,861.81640625,-727.5390625,118.65234375
1755830248.5191965,83.49609375,879.8828125,-742.67578125,52.734375
1755830248.523011,-151.85546875,999.51171875,-666.50390625,-6.34765625
