timestamps,eeg_1,eeg_2,eeg_3,eeg_4
1755829627.6603386,-120.1171875,-134.765625,-456.54296875,8.30078125
1755829627.6639702,-174.8046875,-139.6484375,-755.37109375,-70.3125
1755829627.6676016,-112.79296875,-159.1796875,-953.125,-4.39453125
1755829627.671233,-28.80859375,-160.64453125,-749.0234375,79.58984375
1755829627.6748643,-79.1015625,-153.80859375,-592.28515625,41.015625
1755829627.678496,-176.7578125,-163.0859375,-843.75,-62.98828125
1755829627.6821272,-107.91015625,-175.29296875,-1000.0,19.04296875
1755829627.6857588,-64.94140625,-174.8046875,-853.515625,80.078125
1755829627.6893902,-145.5078125,-158.69140625,-393.06640625,-20.99609375
1755829627.6930215,-174.31640625,-151.85546875,-539.0625,-44.921875
1755829627.6966531,-182.6171875,-165.52734375,-904.296875,-56.15234375
1755829627.7002845,-133.30078125,-172.8515625,-637.6953125,-1.46484375
1755829627.705178,-77.1484375,-170.8984375,-311.03515625,73.73046875
1755829627.710071,-112.79296875,-177.734375,-544.43359375,14.16015625
1755829627.7149649,-174.31640625,-182.12890625,-928.7109375,-68.84765625
1755829627.7198584,-143.5546875,-197.265625,-761.71875,-32.2265625
1755829627.7247517,-91.30859375,-210.44921875,-357.91015625,41.015625
1755829627.7296453,-85.44921875,-196.2890625,-518.5546875,39.0625
1755829627.7345388,-120.1171875,-194.3359375,-988.28125,-8.30078125
1755829627.739432,-172.8515625,-192.87109375,-877.9296875,-63.96484375
1755829627.7443256,-132.8125,-191.40625,-358.88671875,-7.8125
1755829627.7492192,-87.40234375,-191.40625,-462.40234375,48.828125
1755829627.7541125,-146.484375,-192.87109375,-886.23046875,-36.62109375
1755829627.759006,-199.21875,-201.171875,-757.32421875,-114.2578125
1755829627.7639904,-112.79296875,-202.1484375,-468.26171875,13.671875
1755829627.768975,-83.49609375,-207.03125,-468.75,63.4765625
1755829627.7739594,-187.01171875,-213.37890625,-686.5234375,-55.6640625
1755829627.7789438,-207.03125,-222.16796875,-808.59375,-80.56640625
1755829627.7839284,-122.0703125,-237.3046875,-604.00390625,9.765625
1755829627.7889128,-62.5,-256.34765625,-591.796875,87.40234375
1755829627.7938972,-128.90625,-272.4609375,-783.69140625,-3.90625
1755829627.7988818,-223.14453125,-269.53125,-770.01953125,-129.8828125
1755829627.803866,-150.390625,-259.765625,-674.31640625,-40.52734375
1755829627.8088503,-40.52734375,-242.67578125,-611.328125,89.84375
1755829627.8138351,-112.79296875,-225.09765625,-642.578125,19.53125
1755829627.8188195,-220.21484375,-223.14453125,-666.015625,-108.88671875
1755829627.821451,-162.59765625,-227.5390625,-732.91015625,-59.08203125
1755829627.8240826,-69.3359375,-248.53515625,-638.671875,52.734375
1755829627.826714,-139.16015625,-278.3203125,-421.875,-14.16015625
1755829627.8293457,-231.93359375,-286.62109375,-499.51171875,-117.1875
1755829627.8319771,-195.3125,-306.640625,-765.13671875,-85.9375
1755829627.8346086,-103.02734375,-328.125,-707.51953125,32.2265625
1755829627.83724,-112.3046875,-327.1484375,-375.48828125,47.36328125
1755829627.8398716,-191.89453125,-324.21875,-306.15234375,-87.40234375
1755829627.842503,-187.98828125,-330.078125,-693.359375,-91.30859375
1755829627.8451345,-122.55859375,-321.77734375,-716.796875,17.08984375
1755829627.8477662,-115.72265625,-312.5,-250.48828125,26.85546875
1755829627.8503976,-184.08203125,-326.171875,-211.42578125,-48.828125
1755829627.8554482,-181.640625,-342.7734375,-723.14453125,-45.8984375
1755829627.860499,-122.0703125,-347.16796875,-851.5625,19.04296875
1755829627.8655496,-136.71875,-356.93359375,-296.38671875,2.44140625
1755829627.8706,-151.85546875,-362.79296875,-226.5625,-13.18359375
1755829627.8756506,-185.05859375,-354.00390625,-625.9765625,-46.38671875
1755829627.8807013,-152.34375,-350.5859375,-697.75390625,-26.85546875
1755829627.885752,-84.47265625,-344.7265625,-375.9765625,47.8515625
1755829627.8908026,-104.00390625,-355.46875,-140.625,23.92578125
1755829627.895853,-122.0703125,-374.0234375,-633.30078125,-8.30078125
1755829627.9009037,-176.7578125,-365.234375,-854.98046875,-66.40625
1755829627.9059544,-174.31640625,-365.234375,-250.48828125,-49.8046875
1755829627.911005,-95.703125,-377.44140625,-134.765625,69.82421875
1755829627.913435,-160.15625,-376.46484375,-427.734375,-12.20703125
1755829627.915865,-214.35546875,-361.81640625,-646.97265625,-85.9375
1755829627.9182951,-156.25,-382.8125,-417.96875,2.44140625
1755829627.920725,-70.80078125,-397.4609375,-187.98828125,82.51953125
1755829627.923155,-97.65625,-392.578125,-427.734375,14.16015625
1755829627.9255853,-195.80078125,-389.6484375,-668.45703125,-100.5859375
1755829627.9280152,-184.5703125,-372.0703125,-542.96875,-63.4765625
1755829627.9304452,-68.84765625,-359.375,-381.34765625,63.96484375
1755829627.9328752,-57.6171875,-369.62890625,-533.69140625,55.6640625
1755829627.935305,-196.77734375,-385.7421875,-544.43359375,-83.49609375
1755829627.9377353,-188.4765625,-383.30078125,-391.11328125,-69.3359375
1755829627.9401653,-34.66796875,-361.81640625,-310.05859375,83.49609375
1755829627.9439352,-19.04296875,-381.8359375,-615.72265625,118.1640625
1755829627.947705,-206.0546875,-415.0390625,-523.92578125,-101.07421875
1755829627.951475,-187.98828125,-404.78515625,-383.7890625,-112.3046875
1755829627.9552443,-69.3359375,-391.6015625,-348.6328125,23.4375
1755829627.9590144,-55.6640625,-381.8359375,-70.3125,50.29296875
1755829627.9627843,-85.44921875,-374.51171875,-313.96484375,10.7421875
1755829627.9665542,-163.57421875,-380.859375,-690.91796875,-57.6171875
1755829627.970324,-82.03125,-376.46484375,-842.28515625,29.78515625
1755829627.974094,-56.640625,-376.46484375,-698.73046875,69.3359375
1755829627.9778636,-176.26953125,-376.46484375,-103.02734375,-54.6875
1755829627.9816334,-155.2734375,-359.86328125,-297.36328125,-72.75390625
1755829627.9854033,-96.19140625,-347.16796875,-529.78515625,-32.71484375
1755829627.9928813,-42.48046875,-343.75,-115.234375,45.41015625
1755829628.0003595,-63.4765625,-348.6328125,71.2890625,47.36328125
1755829628.0078375,-89.35546875,-341.30859375,-315.91796875,-18.5546875
1755829628.0153155,-91.30859375,-344.7265625,-600.5859375,-29.296875
1755829628.0227935,-64.453125,-359.86328125,-248.53515625,12.6953125
1755829628.0302715,-1.953125,-333.0078125,-62.98828125,53.22265625
1755829628.0377498,-35.64453125,-318.359375,-415.52734375,-0.9765625
1755829628.0452278,-90.33203125,-349.609375,-866.69921875,-69.3359375
1755829628.0527058,-99.609375,-356.93359375,-510.7421875,-56.15234375
1755829628.060184,-35.64453125,-333.49609375,-29.78515625,41.015625
1755829628.067662,-24.4140625,-335.9375,-434.5703125,40.0390625
1755829628.07514,-98.14453125,-353.515625,-713.8671875,-75.1953125
1755829628.077711,-106.4453125,-329.1015625,-226.07421875,-71.77734375
1755829628.0802824,10.7421875,-288.0859375,128.90625,36.62109375
1755829628.0828538,27.34375,-295.8984375,-145.01953125,-1.46484375
1755829628.0854251,-90.33203125,-329.1015625,-437.98828125,-101.5625
1755829628.0879962,-65.4296875,-318.84765625,-319.3359375,-50.78125
1755829628.0905676,45.8984375,-292.48046875,-195.80078125,88.37890625
1755829628.093139,-7.32421875,-280.2734375,-266.11328125,49.8046875
1755829628.09571,-94.7265625,-290.0390625,-346.6796875,-93.26171875
1755829628.0982814,-101.07421875,-299.31640625,-260.7421875,-119.140625
1755829628.1008527,4.8828125,-290.52734375,-87.890625,-13.671875
1755829628.1034238,35.15625,-274.4140625,-85.44921875,36.62109375
1755829628.1059952,-14.16015625,-256.34765625,-254.8828125,-34.66796875
1755829628.1073213,-15.625,-259.765625,-397.4609375,-67.87109375
1755829628.108647,21.484375,-268.06640625,-242.1875,-8.7890625
1755829628.1099734,89.35546875,-256.34765625,-84.9609375,72.265625
1755829628.1112995,13.18359375,-250.48828125,-17.578125,-17.08984375
1755829628.1126256,-44.921875,-253.41796875,-155.2734375,-100.09765625
1755829628.1139517,62.5,-244.140625,-257.32421875,3.90625
1755829628.1152775,172.8515625,-241.69921875,-518.06640625,136.23046875
1755829628.1166036,45.8984375,-238.76953125,-380.37109375,-2.9296875
1755829628.1179297,-71.2890625,-237.3046875,107.421875,-169.43359375
1755829628.1192558,18.06640625,-247.55859375,-104.00390625,-60.546875
1755829628.120582,82.03125,-257.32421875,48.33984375,51.26953125
1755829628.121908,24.90234375,-241.2109375,530.2734375,19.53125
1755829628.1280131,-58.59375,-229.98046875,452.1484375,-81.54296875
1755829628.1341183,9.27734375,-205.078125,-52.734375,-35.64453125
1755829628.1402235,95.21484375,-191.89453125,-246.09375,101.5625
1755829628.1463287,42.96875,-185.546875,301.7578125,46.875
1755829628.152434,-21.97265625,-146.484375,535.64453125,-69.82421875
1755829628.158539,-7.8125,-117.67578125,-115.234375,-18.5546875
1755829628.1646442,10.25390625,-95.703125,-409.1796875,44.43359375
1755829628.1707494,-23.92578125,-116.69921875,575.68359375,-23.92578125
1755829628.1768546,-21.97265625,-118.65234375,843.26171875,-56.640625
1755829628.1829598,-107.91015625,-77.63671875,316.89453125,-96.6796875
1755829628.189065,-117.67578125,-59.08203125,405.76171875,-79.1015625
1755829628.1951702,-17.08984375,-19.53125,916.9921875,15.625
1755829628.1976988,-20.01953125,0.0,937.98828125,17.578125
1755829628.2002273,-81.54296875,24.90234375,513.18359375,-72.265625
1755829628.202756,-73.2421875,60.546875,404.78515625,-77.1484375
1755829628.2052844,-26.85546875,68.359375,805.17578125,-0.48828125
1755829628.207813,-1.46484375,79.1015625,890.13671875,28.80859375
1755829628.2103417,-59.08203125,102.05078125,401.85546875,-28.80859375
1755829628.21287,-96.6796875,97.65625,183.10546875,-83.0078125
1755829628.2153988,-72.265625,75.68359375,615.72265625,-33.203125
1755829628.2179272,-28.3203125,101.5625,826.171875,34.1796875
1755829628.220456,-72.75390625,129.8828125,581.54296875,-43.9453125
1755829628.2229843,-155.76171875,118.1640625,572.75390625,-141.6015625
1755829628.225513,-106.93359375,127.44140625,800.29296875,-55.17578125
1755829628.2292626,-15.625,133.30078125,875.48828125,75.1953125
1755829628.2330122,-76.171875,109.86328125,437.01171875,11.23046875
1755829628.236762,-228.515625,101.5625,449.21875,-171.38671875
1755829628.2405117,-142.578125,116.69921875,752.9296875,-82.51953125
1755829628.2442613,-10.7421875,117.67578125,839.84375,73.73046875
1755829628.248011,-44.921875,97.65625,783.203125,19.04296875
1755829628.2517607,-169.43359375,89.84375,791.50390625,-121.58203125
1755829628.2555103,-155.76171875,104.98046875,934.08203125,-108.3984375
1755829628.25926,-1.46484375,118.65234375,796.38671875,62.01171875
1755829628.2630095,-25.390625,114.74609375,712.40234375,67.3828125
1755829628.2667594,-194.82421875,101.5625,999.51171875,-99.12109375
1755829628.270509,-180.17578125,100.5859375,916.9921875,-85.9375
1755829628.2753284,-75.1953125,112.79296875,783.69140625,27.83203125
1755829628.2801476,-73.2421875,115.72265625,923.33984375,53.22265625
1755829628.284967,-129.8828125,115.72265625,999.51171875,-20.5078125
1755829628.2897863,-166.015625,110.83984375,795.41015625,-102.5390625
1755829628.2946055,-136.71875,91.30859375,763.671875,-40.0390625
1755829628.299425,-61.5234375,89.35546875,949.21875,75.68359375
1755829628.3042445,-121.09375,99.12109375,999.51171875,6.8359375
1755829628.3090634,-165.0390625,93.26171875,779.296875,-69.3359375
1755829628.3138828,-104.00390625,90.8203125,303.7109375,-21.97265625
1755829628.3187022,-107.91015625,82.51953125,687.98828125,9.765625
1755829628.3235214,-115.234375,68.84765625,999.51171875,28.3203125
1755829628.3283408,-155.2734375,73.2421875,731.93359375,-39.0625
1755829628.3310642,-178.7109375,38.57421875,566.89453125,-84.47265625
1755829628.3337877,-132.8125,41.015625,911.62109375,-32.2265625
1755829628.3365111,-83.49609375,61.5234375,999.51171875,25.390625
1755829628.3392348,-112.79296875,40.0390625,687.5,-15.625
1755829628.3419583,-156.73828125,45.41015625,503.90625,-60.546875
1755829628.3446815,-128.90625,22.94921875,842.28515625,0.9765625
1755829628.3474052,-93.26171875,-6.34765625,999.51171875,44.921875
1755829628.350129,-83.984375,15.625,661.1328125,23.4375
1755829628.3528523,-174.8046875,15.13671875,289.55078125,-75.1953125
1755829628.3555758,-209.9609375,-15.625,791.015625,-114.74609375
1755829628.3582993,-100.5859375,-16.11328125,996.58203125,-12.6953125
1755829628.3610227,-111.328125,7.8125,933.10546875,-11.23046875
1755829628.3659496,-212.890625,-0.9765625,844.7265625,-102.05078125
1755829628.3708768,-211.9140625,-26.3671875,871.09375,-100.09765625
1755829628.3758037,-110.83984375,-27.34375,958.984375,18.06640625
1755829628.3807306,-93.75,-18.06640625,970.703125,24.90234375
1755829628.3856578,-168.9453125,-31.73828125,851.07421875,-106.93359375
1755829628.3905847,-182.12890625,-61.5234375,636.23046875,-113.28125
1755829628.3955116,-97.65625,-59.5703125,789.55078125,14.16015625
1755829628.4004388,-70.3125,-57.6171875,618.65234375,66.89453125
1755829628.4053657,-227.5390625,-56.15234375,616.2109375,-94.7265625
1755829628.4102926,-241.2109375,-35.15625,862.79296875,-153.80859375
1755829628.4152198,-121.09375,-37.109375,911.62109375,-18.06640625
1755829628.4201467,-86.42578125,-55.6640625,956.0546875,45.41015625
1755829628.4226687,-172.36328125,-70.80078125,983.3984375,-59.08203125
1755829628.4251904,-231.4453125,-83.984375,850.5859375,-105.95703125
1755829628.4277124,-159.1796875,-84.9609375,656.25,-30.2734375
1755829628.4302344,-77.63671875,-74.21875,830.56640625,25.87890625
1755829628.4327562,-117.1875,-62.98828125,999.51171875,-18.06640625
1755829628.4352782,-168.9453125,-62.98828125,738.28125,-88.8671875
1755829628.4378002,-160.64453125,-64.453125,410.64453125,-62.98828125
1755829628.440322,-137.20703125,-60.05859375,699.70703125,13.671875
1755829628.442844,-115.234375,-68.84765625,999.51171875,-9.27734375
1755829628.445366,-161.62109375,-66.89453125,916.50390625,-99.609375
1755829628.4478877,-133.30078125,-64.94140625,198.73046875,-34.66796875
1755829628.4504097,-76.66015625,-73.2421875,94.23828125,59.08203125
1755829628.4553523,-120.1171875,-68.84765625,928.7109375,6.8359375
1755829628.460295,-142.08984375,-64.94140625,922.36328125,-62.98828125
1755829628.4652376,-179.6875,-58.59375,535.15625,-109.375
1755829628.4701805,-141.11328125,-47.8515625,712.40234375,-50.78125
1755829628.475123,-53.22265625,-42.96875,999.51171875,41.50390625
1755829628.4800656,-79.1015625,-38.0859375,831.0546875,37.59765625
1755829628.4850082,-169.43359375,-48.33984375,145.01953125,-53.22265625
1755829628.489951,-195.80078125,-80.56640625,257.32421875,-123.53515625
1755829628.4948936,-119.140625,-91.30859375,913.57421875,-28.3203125
1755829628.4998362,-83.0078125,-63.96484375,712.890625,56.15234375
1755829628.5047789,-172.8515625,-82.51953125,348.6328125,-52.734375
1755829628.5097215,-217.28515625,-94.7265625,572.265625,-97.65625
1755829628.5134704,-111.81640625,-51.7578125,886.71875,5.37109375
1755829628.517219,-46.875,-30.76171875,880.859375,61.5234375
1755829628.520968,-149.4140625,-39.0625,625.0,-13.18359375
1755829628.5247169,-201.171875,-57.12890625,497.0703125,-92.7734375
1755829628.5284655,-114.74609375,-60.546875,766.6015625,-2.44140625
1755829628.5322144,-49.8046875,-46.38671875,803.7109375,93.75
1755829628.5359633,-134.27734375,-44.43359375,497.55859375,22.4609375
1755829628.539712,-227.05078125,-74.21875,466.30859375,-98.6328125
1755829628.5434608,-143.06640625,-74.70703125,659.66796875,-52.734375
1755829628.5472095,-24.4140625,-58.10546875,554.6875,98.14453125
1755829628.5509584,-104.98046875,-76.66015625,551.7578125,-7.8125
1755829628.5547073,-210.44921875,-88.8671875,614.2578125,-124.0234375
1755829628.5597632,-150.390625,-71.77734375,455.56640625,-27.34375
1755829628.564819,-71.2890625,-51.7578125,688.4765625,42.96875
1755829628.5698748,-120.60546875,-66.40625,856.4453125,-0.9765625
1755829628.574931,-195.3125,-71.2890625,788.0859375,-97.65625
1755829628.5799866,-128.41796875,-25.390625,604.00390625,-83.984375
1755829628.5850425,-30.76171875,-22.4609375,607.421875,52.24609375
1755829628.5900984,-23.4375,-34.66796875,875.0,81.0546875
1755829628.5951543,-112.79296875,-22.4609375,948.73046875,-52.734375
1755829628.6002102,-121.58203125,-22.94921875,598.14453125,-68.359375
1755829628.605266,-39.0625,-13.18359375,466.30859375,54.6875
1755829628.6103218,-76.171875,-21.484375,906.25,44.43359375
1755829628.6153777,-136.23046875,-39.55078125,999.51171875,-40.52734375
1755829628.6191056,-158.203125,-38.57421875,680.6640625,-84.9609375
1755829628.6228335,-130.859375,-50.78125,638.18359375,-43.45703125
1755829628.6265614,-66.89453125,-34.1796875,960.9375,46.875
1755829628.6302893,-88.8671875,-16.6015625,999.51171875,12.20703125
1755829628.6340172,-137.20703125,-19.04296875,386.71875,-45.8984375
1755829628.6377451,-118.65234375,-7.8125,20.01953125,-21.97265625
1755829628.641473,-118.1640625,-13.18359375,728.02734375,-4.39453125
1755829628.645201,-108.3984375,-37.109375,999.51171875,-3.41796875
1755829628.6489289,-157.2265625,-49.8046875,605.46875,-80.56640625
1755829628.6526568,-196.77734375,-53.22265625,417.96875,-132.32421875
1755829628.6563847,-135.25390625,-41.9921875,843.26171875,-48.828125
1755829628.6601126,-74.70703125,-21.484375,999.51171875,25.87890625
1755829628.6626415,-94.23828125,-44.921875,457.51953125,-20.99609375
1755829628.6651702,-193.84765625,-57.6171875,97.65625,-125.9765625
1755829628.667699,-177.24609375,-32.2265625,728.515625,-54.6875
1755829628.6702278,-81.0546875,-25.87890625,987.3046875,85.9375
1755829628.672757,-119.62890625,-37.59765625,918.9453125,-1.953125
1755829628.675285,-197.75390625,-48.33984375,629.39453125,-82.51953125
1755829628.6778142,-159.66796875,-42.48046875,524.90234375,-33.69140625
1755829628.6803432,-51.7578125,-32.2265625,671.38671875,57.12890625
1755829628.6828718,-89.35546875,-41.9921875,717.28515625,27.34375
1755829628.6854007,-216.796875,-41.015625,723.6328125,-108.3984375
1755829628.6879294,-207.51953125,-30.2734375,784.1796875,-105.46875
1755829628.6904583,-87.890625,-36.62109375,877.44140625,35.64453125
1755829628.6942055,-49.31640625,-70.3125,425.29296875,48.828125
1755829628.6979527,-213.8671875,-78.125,445.80078125,-141.6015625
1755829628.7017002,-212.890625,-64.94140625,706.54296875,-104.00390625
1755829628.7054474,-115.72265625,-71.77734375,757.32421875,20.99609375
1755829628.709195,-94.23828125,-60.546875,954.58984375,31.73828125
1755829628.712942,-148.92578125,-60.546875,764.16015625,-21.97265625
1755829628.716689,-217.28515625,-80.078125,563.4765625,-127.44140625
1755829628.7204366,-105.46875,-68.359375,327.63671875,-4.39453125
1755829628.7241838,-87.40234375,-78.61328125,385.7421875,56.640625
1755829628.727931,-219.23828125,-96.19140625,925.78125,-109.375
1755829628.7316785,-217.28515625,-73.73046875,746.58203125,-148.4375
1755829628.7354257,-155.2734375,-69.82421875,440.4296875,-78.61328125
1755829628.7404144,-129.39453125,-87.890625,724.609375,2.9296875
1755829628.745403,-156.73828125,-79.58984375,999.51171875,-5.859375
1755829628.750392,-154.78515625,-68.359375,769.04296875,-56.640625
1755829628.7553806,-157.2265625,-82.51953125,487.79296875,-66.40625
1755829628.7603693,-136.71875,-88.8671875,780.76171875,-3.41796875
1755829628.765358,-98.14453125,-91.796875,999.51171875,21.484375
1755829628.7703466,-136.23046875,-75.68359375,723.6328125,-53.7109375
1755829628.7753353,-155.2734375,-73.2421875,125.9765625,-48.828125
1755829628.780324,-156.25,-101.5625,511.23046875,-26.85546875
1755829628.785313,-118.1640625,-106.93359375,999.51171875,0.48828125
1755829628.7903016,-139.6484375,-86.9140625,799.8046875,-25.390625
1755829628.7952902,-158.203125,-70.3125,426.26953125,-65.4296875
1755829628.7978528,-136.71875,-62.5,631.8359375,-39.55078125
1755829628.8004155,-87.890625,-66.40625,999.51171875,34.66796875
1755829628.802978,-65.4296875,-77.1484375,763.18359375,52.734375
1755829628.8055408,-156.25,-73.2421875,530.76171875,-66.40625
1755829628.808103,-165.52734375,-76.66015625,878.90625,-90.8203125
1755829628.810666,-45.41015625,-66.40625,999.51171875,56.640625
1755829628.8132286,-82.51953125,-62.5,849.12109375,66.89453125
1755829628.8157911,-186.5234375,-61.5234375,751.46484375,-71.77734375
1755829628.818354,-185.546875,-55.6640625,839.35546875,-100.5859375
1755829628.8209164,-100.09765625,-51.26953125,999.51171875,6.34765625
1755829628.8234792,-46.875,-49.8046875,709.47265625,93.26171875
1755829628.8260417,-147.4609375,-53.7109375,471.6796875,-52.734375
1755829628.8321238,-210.44921875,-56.640625,789.0625,-140.13671875
1755829628.8382058,-111.328125,-75.68359375,921.38671875,-2.9296875
1755829628.844288,-63.4765625,-80.56640625,933.10546875,63.4765625
1755829628.8503702,-147.94921875,-72.265625,946.2890625,-26.85546875
1755829628.8564522,-197.265625,-83.984375,868.1640625,-124.0234375
1755829628.8625343,-112.79296875,-100.09765625,738.76953125,-29.78515625
1755829628.8686163,-40.52734375,-76.66015625,507.8125,103.515625
1755829628.8746984,-146.484375,-66.89453125,707.03125,-7.8125
1755829628.8807807,-242.67578125,-69.3359375,999.51171875,-154.296875
1755829628.8868628,-157.2265625,-47.36328125,850.09765625,-69.82421875
1755829628.8929448,-85.44921875,-44.43359375,875.9765625,42.96875
1755829628.8990269,-123.53515625,-54.19921875,986.81640625,1.953125
1755829628.9015703,-184.5703125,-63.96484375,950.68359375,-89.35546875
1755829628.9041138,-176.26953125,-73.2421875,674.8046875,-81.54296875
1755829628.9066572,-122.55859375,-79.58984375,737.3046875,4.8828125
1755829628.909201,-100.5859375,-66.89453125,997.55859375,25.87890625
1755829628.911744,-137.6953125,-65.91796875,976.07421875,-58.10546875
1755829628.9142876,-160.64453125,-83.0078125,631.34765625,-69.3359375
1755829628.9168308,-109.375,-80.078125,561.5234375,20.99609375
1755829628.9193742,-97.16796875,-81.0546875,913.57421875,41.015625
1755829628.9219177,-166.50390625,-92.28515625,999.51171875,-41.015625
1755829628.9244611,-172.8515625,-88.37890625,316.89453125,-37.109375
1755829628.9270046,-156.73828125,-85.9375,118.65234375,-22.4609375
1755829628.929548,-147.4609375,-90.8203125,939.453125,-41.015625
1755829628.9333725,-122.0703125,-87.890625,999.51171875,-2.9296875
1755829628.9371967,-163.0859375,-76.66015625,659.1796875,-45.41015625
1755829628.941021,-175.78125,-74.21875,704.1015625,-77.63671875
1755829628.9448454,-112.3046875,-77.1484375,979.00390625,6.34765625
1755829628.94867,-94.23828125,-73.73046875,979.98046875,39.55078125
1755829628.952494,-136.23046875,-76.171875,651.85546875,-29.78515625
1755829628.9563184,-185.546875,-93.75,502.44140625,-74.70703125
1755829628.9601429,-152.83203125,-111.328125,885.25390625,-20.5078125
1755829628.963967,-62.5,-97.16796875,977.05078125,72.265625
1755829628.9677916,-94.23828125,-81.54296875,415.0390625,27.83203125
1755829628.9716158,-226.07421875,-96.6796875,415.52734375,-117.67578125
1755829628.9754405,-180.17578125,-91.796875,895.01953125,-53.22265625
1755829628.9791944,-93.75,-93.75,954.1015625,44.43359375
1755829628.9829488,-139.16015625,-108.88671875,955.078125,-23.4375
1755829628.986703,-214.35546875,-99.12109375,821.2890625,-95.21484375
1755829628.9904573,-166.015625,-85.44921875,802.24609375,-51.26953125
1755829628.9942114,-69.3359375,-86.42578125,945.80078125,45.41015625
1755829628.9979658,-77.1484375,-98.14453125,816.40625,33.69140625
1755829629.00172,-161.1328125,-85.44921875,546.38671875,-76.66015625
1755829629.005474,-183.10546875,-78.125,580.078125,-96.19140625
1755829629.0092285,-67.87109375,-117.67578125,436.03515625,41.50390625
1755829629.0129826,-84.47265625,-112.3046875,485.3515625,32.71484375
1755829629.016737,-177.24609375,-71.77734375,725.09765625,-81.0546875
1755829629.0204911,-147.94921875,-75.68359375,359.86328125,-59.5703125
1755829629.024248,-111.81640625,-78.61328125,494.140625,4.39453125
1755829629.0280051,-89.84375,-74.70703125,915.52734375,31.25
1755829629.031762,-138.671875,-87.890625,933.59375,-55.17578125
1755829629.0355191,-178.22265625,-98.14453125,573.73046875,-99.609375
1755829629.039276,-115.234375,-88.37890625,443.84765625,-8.7890625
1755829629.0430331,-60.546875,-94.7265625,777.34375,53.7109375
1755829629.0467904,-122.0703125,-122.55859375,861.328125,-36.1328125
1755829629.0505474,-186.5234375,-126.46484375,491.69921875,-115.72265625
1755829629.0543044,-141.11328125,-110.3515625,76.171875,-52.734375
1755829629.0580614,-106.4453125,-99.609375,572.265625,9.27734375
1755829629.0618184,-103.02734375,-87.40234375,999.51171875,-2.9296875
1755829629.0655754,-134.27734375,-90.33203125,642.578125,-76.66015625
1755829629.0694273,-162.59765625,-123.53515625,399.90234375,-83.0078125
1755829629.0732791,-113.76953125,-131.34765625,819.82421875,-6.8359375
1755829629.077131,-88.37890625,-138.18359375,978.02734375,22.4609375
1755829629.080983,-121.58203125,-156.73828125,489.2578125,-35.15625
1755829629.0848348,-162.109375,-174.31640625,140.13671875,-96.6796875
1755829629.088687,-153.80859375,-192.3828125,500.0,-58.10546875
1755829629.0925388,-96.6796875,-187.01171875,855.95703125,21.484375
1755829629.0963907,-95.703125,-173.828125,407.2265625,5.859375
1755829629.1002426,-174.8046875,-178.22265625,-54.6875,-102.05078125
1755829629.1040945,-183.10546875,-196.77734375,563.96484375,-116.2109375
1755829629.1079464,-65.4296875,-196.2890625,973.14453125,31.73828125
1755829629.1117983,-80.078125,-210.9375,828.125,18.06640625
1755829629.1166165,-185.546875,-256.8359375,486.328125,-114.74609375
1755829629.1214347,-162.59765625,-284.1796875,428.22265625,-90.8203125
1755829629.126253,-59.5703125,-301.7578125,698.2421875,55.17578125
1755829629.1310709,-65.91796875,-310.546875,727.5390625,50.29296875
1755829629.135889,-158.203125,-323.73046875,477.5390625,-69.3359375
1755829629.140707,-157.2265625,-348.14453125,233.3984375,-70.3125
1755829629.1455252,-84.9609375,-370.60546875,434.5703125,15.13671875
1755829629.1503434,-32.2265625,-402.83203125,152.34375,63.4765625
1755829629.1551616,-161.62109375,-414.55078125,84.47265625,-91.30859375
1755829629.1599798,-217.28515625,-411.1328125,453.61328125,-136.23046875
1755829629.1647978,-104.98046875,-436.03515625,382.32421875,-5.859375
1755829629.169616,-84.9609375,-462.890625,668.9453125,36.62109375
1755829629.1734338,-123.53515625,-443.84765625,754.8828125,-21.484375
1755829629.177251,-168.45703125,-431.15234375,407.71484375,-101.5625
1755829629.1810691,-117.67578125,-431.15234375,332.03125,-32.2265625
1755829629.1848867,-66.40625,-416.9921875,630.859375,53.22265625
1755829629.1887045,-106.4453125,-414.0625,706.54296875,-5.859375
1755829629.192522,-152.34375,-422.36328125,236.81640625,-71.77734375
1755829629.1963398,-137.20703125,-412.59765625,-200.68359375,-37.109375
1755829629.2001576,-89.84375,-424.8046875,69.3359375,31.73828125
1755829629.2039752,-117.1875,-442.3828125,591.796875,-2.9296875
1755829629.207793,-183.10546875,-442.87109375,558.10546875,-113.28125
1755829629.2116106,-137.20703125,-452.63671875,-173.828125,-60.05859375
1755829629.2154284,-99.609375,-444.82421875,-168.45703125,24.90234375
1755829629.21906,-138.18359375,-445.3125,723.6328125,-4.39453125
1755829629.2226915,-156.73828125,-446.2890625,521.484375,-45.41015625
1755829629.2263231,-170.8984375,-434.08203125,34.66796875,-87.40234375
1755829629.2299547,-153.80859375,-424.8046875,288.57421875,-49.31640625
1755829629.2335863,-100.5859375,-418.9453125,715.33203125,32.71484375
1755829629.237218,-96.6796875,-417.96875,422.36328125,22.94921875
1755829629.2408493,-179.19921875,-409.1796875,-85.44921875,-83.984375
1755829629.2444808,-188.96484375,-391.6015625,168.9453125,-99.609375
1755829629.2481124,-108.3984375,-395.5078125,670.41015625,-6.8359375
1755829629.251744,-71.77734375,-392.08984375,469.7265625,45.41015625
1755829629.2553756,-142.578125,-392.08984375,-312.5,-45.8984375
1755829629.2590072,-231.4453125,-389.16015625,-120.1171875,-139.16015625
1755829629.262714,-155.76171875,-375.48828125,519.04296875,-36.62109375
1755829629.2664204,-84.47265625,-366.69921875,411.1328125,37.109375
1755829629.270127,-176.26953125,-389.16015625,8.30078125,-67.87109375
1755829629.2738335,-246.58203125,-397.94921875,-2.9296875,-149.4140625
1755829629.2775402,-157.71484375,-363.76953125,267.578125,-45.41015625
1755829629.281247,-74.21875,-340.33203125,208.0078125,58.10546875
1755829629.2849534,-164.55078125,-330.56640625,28.3203125,-46.875
1755829629.28866,-248.046875,-333.984375,106.93359375,-147.94921875
1755829629.2923665,-167.96875,-335.9375,257.32421875,-73.2421875
1755829629.2960732,-83.984375,-342.28515625,290.0390625,29.296875
1755829629.2997797,-174.31640625,-335.44921875,257.32421875,-55.17578125
1755829629.3034863,-236.81640625,-300.29296875,167.48046875,-158.69140625
1755829629.3074555,-173.33984375,-301.7578125,108.88671875,-104.4921875
1755829629.3114245,-99.12109375,-310.05859375,250.0,20.5078125
1755829629.3153937,-113.28125,-295.8984375,348.14453125,11.71875
1755829629.3193626,-216.30859375,-296.875,201.171875,-125.0
1755829629.3233318,-198.73046875,-309.08203125,113.28125,-97.65625
1755829629.327301,-50.29296875,-298.828125,-259.27734375,105.46875
1755829629.33127,-100.09765625,-272.94921875,-145.5078125,58.10546875
1755829629.3352392,-229.00390625,-272.94921875,352.05078125,-124.0234375
1755829629.339208,-190.91796875,-286.62109375,-43.45703125,-92.7734375
1755829629.3431773,-124.0234375,-293.45703125,-23.92578125,-1.46484375
1755829629.3471465,-115.72265625,-279.296875,565.91796875,20.5078125
1755829629.3511157,-155.2734375,-258.30078125,533.203125,-36.62109375
1755829629.3547938,-189.453125,-262.6953125,-55.17578125,-100.09765625
1755829629.3584723,-168.45703125,-281.73828125,-76.171875,-57.12890625
1755829629.362151,-142.08984375,-306.15234375,440.4296875,-16.6015625
1755829629.365829,-138.671875,-294.43359375,566.40625,-31.73828125
1755829629.3695076,-180.17578125,-295.41015625,-0.9765625,-77.63671875
1755829629.373186,-166.9921875,-289.55078125,-262.20703125,-56.640625
1755829629.3768642,-102.5390625,-265.625,183.10546875,23.92578125
1755829629.3805428,-122.55859375,-262.20703125,510.7421875,6.34765625
1755829629.384221,-132.32421875,-264.16015625,-148.92578125,-30.2734375
1755829629.3878994,-162.109375,-271.484375,-560.546875,-57.12890625
1755829629.391578,-154.78515625,-280.2734375,216.796875,-30.2734375
1755829629.3952563,-107.91015625,-283.69140625,482.421875,32.2265625
1755829629.3990262,-185.05859375,-263.671875,196.2890625,-60.05859375
1755829629.402796,-215.8203125,-261.23046875,-44.43359375,-125.48828125
1755829629.406566,-130.37109375,-270.01953125,92.28515625,-37.109375
1755829629.4103358,-83.49609375,-268.06640625,357.91015625,48.828125
1755829629.4141057,-135.7421875,-277.83203125,200.1953125,-17.578125
1755829629.4178755,-179.6875,-278.3203125,-159.66796875,-97.65625
1755829629.4216454,-174.8046875,-291.50390625,-88.8671875,-66.89453125
1755829629.4254153,-99.12109375,-299.8046875,243.1640625,27.34375
1755829629.4291852,-50.29296875,-284.1796875,-286.62109375,69.82421875
1755829629.432955,-198.73046875,-300.29296875,-508.7890625,-117.1875
1755829629.436725,-241.69921875,-312.01171875,69.3359375,-167.96875
1755829629.4404948,-83.0078125,-301.7578125,137.6953125,31.73828125
1755829629.4442377,-83.0078125,-298.828125,102.5390625,49.8046875
1755829629.4479806,-209.9609375,-305.17578125,151.85546875,-101.5625
1755829629.4517236,-204.1015625,-298.33984375,72.75390625,-99.12109375
1755829629.4554665,-108.88671875,-298.828125,129.39453125,15.625
1755829629.4592094,-70.80078125,-306.640625,308.10546875,53.22265625
1755829629.4629526,-135.25390625,-302.24609375,184.5703125,-40.52734375
1755829629.4666955,-181.15234375,-296.38671875,-107.421875,-121.09375
1755829629.4704385,-90.33203125,-304.19921875,-313.4765625,-15.625
1755829629.4741814,-50.78125,-303.7109375,-148.92578125,53.22265625
1755829629.4779243,-157.71484375,-287.59765625,281.73828125,-52.24609375
1755829629.4816673,-193.84765625,-284.66796875,1.46484375,-106.93359375
1755829629.4854102,-155.76171875,-292.48046875,-156.25,-84.47265625
1755829629.4892762,-104.4921875,-285.64453125,271.97265625,-10.25390625
1755829629.493142,-115.72265625,-280.2734375,499.51171875,-5.859375
1755829629.4970078,-162.59765625,-301.7578125,144.53125,-74.70703125
1755829629.5008736,-151.3671875,-296.38671875,-220.21484375,-66.89453125
1755829629.5047395,-94.23828125,-273.92578125,106.4453125,7.8125
1755829629.5086057,-65.4296875,-274.90234375,350.09765625,37.59765625
1755829629.5124712,-123.53515625,-273.4375,16.6015625,-34.66796875
1755829629.5163372,-158.69140625,-268.06640625,-526.85546875,-61.03515625
1755829629.5202029,-155.76171875,-267.08984375,-131.34765625,-42.96875
1755829629.5240688,-113.76953125,-264.6484375,512.6953125,-7.8125
1755829629.5279346,-129.39453125,-274.90234375,161.62109375,-33.69140625
1755829629.5318005,-182.12890625,-278.3203125,-160.15625,-97.16796875
1755829629.53555,-144.04296875,-272.4609375,38.0859375,-45.41015625
1755829629.5392992,-47.8515625,-265.13671875,253.90625,68.359375
1755829629.5430486,-78.125,-272.94921875,13.18359375,37.59765625
1755829629.546798,-203.125,-278.3203125,-168.45703125,-115.234375
1755829629.5505474,-166.50390625,-262.20703125,62.01171875,-94.23828125
1755829629.5542967,-61.5234375,-247.55859375,264.6484375,45.8984375
1755829629.558046,-58.59375,-252.9296875,10.7421875,73.2421875
1755829629.5617957,-167.48046875,-270.01953125,-582.51953125,-51.26953125
1755829629.5655448,-262.20703125,-268.5546875,-208.0078125,-174.31640625
1755829629.5692942,-144.53125,-262.6953125,328.125,-41.50390625
1755829629.5730436,-93.26171875,-245.1171875,394.04296875,42.48046875
1755829629.576793,-171.38671875,-230.95703125,219.23828125,-60.05859375
1755829629.5815446,-202.1484375,-233.88671875,0.9765625,-110.3515625
1755829629.5862963,-109.375,-235.3515625,31.25,7.8125
1755829629.5910482,-70.80078125,-236.81640625,240.72265625,67.87109375
1755829629.5958,-158.203125,-253.90625,233.88671875,-22.4609375
1755829629.6005516,-207.51953125,-276.3671875,-207.51953125,-98.6328125
1755829629.6053033,-173.33984375,-258.7890625,-214.35546875,-67.3828125
1755829629.610055,-67.87109375,-245.60546875,-361.328125,77.63671875
1755829629.614807,-139.16015625,-249.0234375,-344.23828125,-2.44140625
1755829629.6195583,-250.0,-246.09375,84.47265625,-155.76171875
1755829629.6243105,-179.19921875,-237.79296875,-140.13671875,-88.37890625
1755829629.629062,-102.05078125,-236.328125,66.89453125,14.6484375
1755829629.6338136,-114.2578125,-236.328125,379.8828125,13.671875
1755829629.6376455,-178.7109375,-228.02734375,149.4140625,-68.84765625
1755829629.641477,-174.31640625,-227.5390625,-184.5703125,-68.84765625
1755829629.645309,-121.09375,-240.234375,-45.41015625,10.7421875
1755829629.6491406,-124.51171875,-243.65234375,367.67578125,2.44140625
1755829629.6529725,-175.78125,-237.3046875,218.75,-76.171875
1755829629.656804,-148.4375,-229.98046875,-489.74609375,-62.98828125
1755829629.660636,-103.515625,-217.28515625,-469.7265625,4.39453125
1755829629.6644678,-93.75,-195.80078125,133.30078125,40.0390625
1755829629.6682994,-146.97265625,-204.58984375,211.42578125,-41.015625
1755829629.6721313,-146.484375,-220.21484375,-480.46875,-53.7109375
1755829629.675963,-135.25390625,-219.23828125,-618.1640625,-26.85546875
1755829629.6797948,-130.859375,-213.37890625,321.2890625,-19.53125
1755829629.683596,-121.58203125,-210.9375,377.9296875,-14.6484375
1755829629.6873977,-197.75390625,-215.8203125,-83.0078125,-118.1640625
1755829629.6911988,-200.68359375,-222.65625,-152.34375,-121.09375
1755829629.6950002,-132.32421875,-226.07421875,207.03125,-14.6484375
1755829629.6988015,-106.93359375,-220.703125,354.4921875,11.23046875
1755829629.7026029,-149.90234375,-221.6796875,-153.3203125,-52.24609375
1755829629.706404,-209.47265625,-225.09765625,-326.66015625,-112.3046875
1755829629.7102053,-178.22265625,-208.49609375,130.37109375,-46.38671875
1755829629.714007,-91.30859375,-205.078125,249.51171875,41.50390625
1755829629.717808,-124.0234375,-236.328125,-272.4609375,-22.4609375
1755829629.7216094,-234.86328125,-236.81640625,-450.1953125,-133.7890625
1755829629.7254107,-189.94140625,-196.2890625,77.1484375,-74.21875
1755829629.729161,-60.05859375,-180.17578125,205.56640625,58.59375
1755829629.7329116,-104.4921875,-186.5234375,-145.5078125,-3.90625
1755829629.736662,-231.4453125,-193.84765625,-150.390625,-158.69140625
1755829629.7404122,-179.6875,-198.73046875,-109.375,-97.65625
1755829629.7441628,-80.078125,-208.984375,-18.06640625,43.9453125
1755829629.7479131,-99.12109375,-204.58984375,-47.8515625,21.97265625
1755829629.7516634,-192.87109375,-190.91796875,-236.328125,-104.4921875
1755829629.755414,-203.125,-201.171875,-114.2578125,-106.93359375
1755829629.7591643,-52.734375,-195.3125,-211.42578125,65.4296875
1755829629.762915,-75.68359375,-189.453125,-289.0625,37.109375
1755829629.7666652,-239.74609375,-206.0546875,-52.24609375,-143.06640625
1755829629.7704155,-217.7734375,-199.70703125,-160.15625,-130.859375
1755829629.7742176,-120.1171875,-187.98828125,-173.828125,-6.34765625
1755829629.7780197,-111.81640625,-178.22265625,45.41015625,0.48828125
1755829629.7818215,-191.40625,-168.9453125,139.16015625,-109.86328125
1755829629.785624,-201.171875,-166.9921875,-186.03515625,-107.421875
1755829629.789426,-132.32421875,-168.45703125,-332.03125,-10.7421875
1755829629.793228,-93.26171875,-191.40625,-129.8828125,34.66796875
1755829629.7970302,-170.41015625,-201.171875,-4.39453125,-54.6875
1755829629.8008325,-222.16796875,-197.265625,-241.2109375,-98.6328125
1755829629.8046346,-156.73828125,-196.77734375,-625.48828125,-36.1328125
1755829629.8084366,-128.90625,-192.3828125,-101.5625,-29.78515625
1755829629.8122387,-144.53125,-191.40625,404.78515625,-54.19921875
1755829629.8160408,-182.12890625,-191.89453125,-151.3671875,-98.6328125
1755829629.8197217,-177.734375,-179.19921875,-341.30859375,-102.05078125
1755829629.8234022,-111.81640625,-163.0859375,109.86328125,-5.37109375
1755829629.8270829,-80.078125,-158.69140625,291.50390625,40.0390625
1755829629.8307636,-139.16015625,-174.31640625,-205.56640625,-51.7578125
1755829629.8344443,-191.40625,-190.91796875,-568.84765625,-122.0703125
1755829629.838125,-127.9296875,-189.453125,-239.2578125,-30.76171875
1755829629.8418057,-87.890625,-189.453125,66.89453125,29.296875
1755829629.8454864,-96.19140625,-208.0078125,-366.69921875,-3.41796875
1755829629.849167,-155.2734375,-189.453125,-910.15625,-64.94140625
1755829629.8528478,-192.87109375,-158.203125,-310.546875,-94.23828125
1755829629.8565283,-83.49609375,-170.41015625,145.99609375,13.671875
1755829629.8602092,-106.4453125,-177.24609375,-0.9765625,-14.6484375
1755829629.8639836,-206.0546875,-171.875,-179.19921875,-117.1875
1755829629.8677578,-172.8515625,-173.828125,-155.76171875,-79.1015625
1755829629.8715322,-64.94140625,-172.8515625,-15.625,52.24609375
1755829629.8753066,-92.7734375,-169.921875,20.01953125,43.45703125
1755829629.8790808,-190.4296875,-177.734375,-105.95703125,-86.42578125
1755829629.8828552,-160.15625,-185.546875,-339.84375,-82.51953125
1755829629.8866296,-66.40625,-170.41015625,-161.1328125,22.4609375
1755829629.8904035,-12.6953125,-167.48046875,-422.36328125,94.23828125
1755829629.8941782,-143.06640625,-180.17578125,-675.78125,-48.828125
1755829629.8979526,-230.46875,-188.96484375,-328.125,-174.8046875
1755829629.9017267,-135.25390625,-182.12890625,-228.02734375,-56.640625
1755829629.9055011,-81.54296875,-173.33984375,-36.1328125,40.0390625
1755829629.9104936,-145.99609375,-177.24609375,-25.390625,-33.69140625
1755829629.915486,-203.125,-176.26953125,-222.16796875,-101.5625
1755829629.9204783,-153.3203125,-183.10546875,-296.38671875,-39.0625
1755829629.9254708,-100.09765625,-196.2890625,-4.39453125,8.30078125
1755829629.9304633,-106.4453125,-195.3125,102.5390625,-20.01953125
1755829629.9354558,-151.85546875,-190.91796875,-371.58203125,-69.82421875
1755829629.9404483,-111.81640625,-208.984375,-764.6484375,-26.85546875
1755829629.9454408,-88.37890625,-214.84375,-536.1328125,17.578125
1755829629.9504333,-168.45703125,-197.265625,152.83203125,-51.7578125
1755829629.9554255,-169.43359375,-192.3828125,-12.6953125,-113.76953125
1755829629.960418,-151.85546875,-210.9375,-628.41796875,-104.98046875
1755829629.9654105,-145.5078125,-212.890625,-349.12109375,-15.13671875
1755829629.9691627,-118.65234375,-199.21875,253.90625,17.08984375
1755829629.972915,-142.578125,-220.703125,-0.48828125,-48.33984375
1755829629.9766672,-203.61328125,-255.37109375,-459.47265625,-121.58203125
1755829629.9804194,-167.48046875,-240.234375,-289.55078125,-96.6796875
1755829629.9841716,-79.58984375,-217.28515625,52.734375,5.859375
1755829629.987924,-129.39453125,-233.88671875,-222.65625,0.0
1755829629.991676,-213.8671875,-234.375,-709.47265625,-105.95703125
1755829629.9954283,-193.84765625,-222.65625,-487.3046875,-120.1171875
1755829629.9991806,-142.578125,-232.91015625,118.65234375,-43.9453125
1755829630.0029328,-100.09765625,-224.609375,64.94140625,2.44140625
1755829630.006685,-145.01953125,-229.98046875,-674.8046875,-62.98828125
1755829630.0104373,-229.4921875,-254.8828125,-523.92578125,-150.390625
1755829630.015327,-147.4609375,-265.13671875,75.68359375,-42.48046875
1755829630.0202167,-77.1484375,-247.55859375,-122.55859375,44.921875
1755829630.0251064,-182.12890625,-245.1171875,-455.078125,-68.84765625
1755829630.0299962,-246.58203125,-266.6015625,-363.28125,-150.87890625
1755829630.034886,-150.87890625,-279.296875,-134.27734375,-41.9921875
1755829630.0397754,-89.84375,-258.7890625,-180.6640625,46.875
1755829630.044665,-170.41015625,-244.140625,-411.1328125,-40.52734375
1755829630.0495548,-251.46484375,-265.13671875,-418.9453125,-150.390625
1755829630.0544446,-186.03515625,-278.80859375,-187.98828125,-91.30859375
1755829630.0593345,-56.640625,-280.2734375,-277.34375,83.0078125
1755829630.064224,-122.0703125,-277.83203125,-522.94921875,23.4375
1755829630.0691135,-253.41796875,-286.1328125,-392.08984375,-161.62109375
1755829630.071707,-181.640625,-307.12890625,-395.01953125,-95.703125
1755829630.0743003,-101.5625,-299.8046875,-201.171875,-1.953125
1755829630.0768938,-119.62890625,-295.8984375,-23.92578125,-41.015625
1755829630.079487,-164.55078125,-299.8046875,-341.30859375,-105.95703125
1755829630.0820806,-145.5078125,-309.08203125,-632.8125,-80.56640625
1755829630.084674,-60.546875,-330.56640625,-518.5546875,27.83203125
1755829630.0872672,-107.421875,-338.37890625,-176.7578125,-7.32421875
1755829630.089861,-197.75390625,-337.40234375,-54.6875,-112.3046875
1755829630.092454,-155.2734375,-316.89453125,-374.51171875,-99.12109375
1755829630.0950472,-82.51953125,-335.9375,-860.3515625,-2.9296875
1755829630.0976408,-126.953125,-368.1640625,-484.375,-5.859375
1755829630.100234,-204.1015625,-347.16796875,42.96875,-122.0703125
1755829630.1063137,-173.828125,-315.91796875,-513.671875,-105.46875
1755829630.112393,-112.79296875,-303.7109375,-640.13671875,-22.4609375
1755829630.1184723,-111.328125,-291.50390625,43.9453125,0.9765625
1755829630.1245518,-116.2109375,-301.7578125,50.29296875,-21.484375
1755829630.1306312,-186.03515625,-338.8671875,-412.109375,-118.65234375
1755829630.1367106,-155.2734375,-347.16796875,-574.70703125,-95.703125
1755829630.1427903,-90.8203125,-330.56640625,-225.09765625,-0.48828125
1755829630.1488698,-134.27734375,-338.37890625,18.06640625,-27.34375
1755829630.1549492,-130.37109375,-337.890625,-519.53125,-61.03515625
1755829630.1610286,-157.71484375,-323.2421875,-917.48046875,-83.984375
1755829630.167108,-189.453125,-321.2890625,-192.3828125,-95.21484375
1755829630.1731875,-124.0234375,-313.96484375,239.2578125,-12.6953125
1755829630.1746223,-161.1328125,-317.3828125,-135.7421875,-61.03515625
1755829630.176057,-208.984375,-323.73046875,-346.6796875,-128.90625
1755829630.177492,-148.92578125,-304.19921875,-23.92578125,-57.6171875
1755829630.1789272,-39.55078125,-284.66796875,177.734375,57.12890625
1755829630.1803622,-66.40625,-280.76171875,-93.75,16.11328125
1755829630.181797,-174.31640625,-272.4609375,-512.6953125,-84.9609375
1755829630.1832318,-137.6953125,-270.01953125,-404.296875,-60.546875
1755829630.1846669,-39.0625,-262.6953125,-10.25390625,33.203125
1755829630.186102,-60.05859375,-260.25390625,-73.73046875,-5.37109375
1755829630.1875367,-164.55078125,-261.23046875,-340.33203125,-167.48046875
1755829630.1889715,-178.22265625,-249.51171875,-309.5703125,-182.12890625
1755829630.1904066,-17.08984375,-224.609375,-168.45703125,4.8828125
1755829630.197785,51.7578125,-198.2421875,-475.5859375,52.24609375
1755829630.205163,-70.3125,-199.70703125,-460.9375,-86.9140625
1755829630.212541,-84.47265625,-200.68359375,-231.4453125,-99.12109375
1755829630.2199197,54.19921875,-196.77734375,-326.66015625,53.7109375
1755829630.227298,82.51953125,-189.453125,-340.8203125,80.56640625
1755829630.2346764,-41.9921875,-189.94140625,-271.484375,-62.01171875
1755829630.2420545,-74.70703125,-195.80078125,-497.55859375,-129.39453125
1755829630.2494328,15.13671875,-190.91796875,-658.69140625,-10.25390625
1755829630.2568111,53.7109375,-181.15234375,-455.078125,72.75390625
1755829630.2641892,-29.78515625,-194.82421875,20.5078125,-69.3359375
1755829630.2715676,-65.4296875,-208.0078125,-242.67578125,-128.90625
1755829630.278946,-21.484375,-194.82421875,-415.52734375,-87.890625
1755829630.2792976,40.52734375,-195.3125,-60.05859375,23.4375
1755829630.2796493,-6.34765625,-206.54296875,173.828125,-6.8359375
1755829630.280001,-56.640625,-203.125,-174.8046875,-83.49609375
1755829630.2803526,-59.08203125,-205.56640625,-575.1953125,-56.640625
1755829630.2807045,-45.8984375,-214.84375,-189.94140625,2.44140625
1755829630.281056,-29.296875,-208.49609375,106.4453125,5.859375
1755829630.2814076,-44.921875,-206.0546875,-294.43359375,-59.5703125
1755829630.2817593,-61.03515625,-209.9609375,-755.859375,-48.828125
1755829630.282111,-57.12890625,-214.35546875,-401.3671875,13.671875
1755829630.2824626,-69.3359375,-224.609375,198.73046875,45.8984375
1755829630.2828145,-70.80078125,-223.14453125,-174.8046875,17.578125
1755829630.283166,-87.40234375,-208.0078125,-674.31640625,-53.22265625
1755829630.2879217,-102.5390625,-202.63671875,-302.734375,-36.1328125
1755829630.2926774,-44.921875,-209.9609375,169.921875,69.82421875
1755829630.2974331,-50.29296875,-216.30859375,-223.14453125,54.19921875
1755829630.3021889,-139.16015625,-230.95703125,-800.29296875,-47.8515625
1755829630.3069446,-134.27734375,-244.140625,-462.890625,-60.05859375
1755829630.3117003,-58.10546875,-255.859375,-18.06640625,65.91796875
1755829630.316456,-38.0859375,-268.06640625,-353.02734375,92.28515625
1755829630.3212118,-86.42578125,-254.39453125,-1000.0,9.765625
1755829630.3259676,-177.734375,-246.09375,-737.3046875,-85.44921875
1755829630.3307233,-105.46875,-275.87890625,-122.0703125,-18.5546875
1755829630.335479,-69.82421875,-287.109375,1.46484375,15.13671875
1755829630.3402348,-153.3203125,-279.78515625,-149.90234375,-62.01171875
1755829630.3438735,-208.984375,-287.109375,-195.3125,-95.21484375
1755829630.3475125,-145.5078125,-278.80859375,-51.7578125,-27.34375
1755829630.3511517,-88.8671875,-274.90234375,63.4765625,55.17578125
1755829630.3547904,-152.34375,-302.734375,-16.11328125,-29.296875
1755829630.3584292,-178.22265625,-316.89453125,-210.9375,-122.0703125
1755829630.3620682,-111.328125,-299.8046875,-242.1875,-47.8515625
1755829630.3657072,-75.68359375,-294.921875,-79.1015625,41.015625
1755829630.369346,-133.7890625,-313.96484375,15.13671875,-27.83203125
1755829630.372985,-238.28125,-338.8671875,-56.640625,-157.2265625
1755829630.376624,-185.05859375,-336.9140625,-149.4140625,-72.265625
1755829630.3802626,-11.71875,-335.44921875,-496.58203125,116.2109375
1755829630.3839016,-125.0,-365.234375,-238.28125,-22.94921875
1755829630.3877754,-227.05078125,-375.9765625,62.98828125,-136.23046875
1755829630.3916492,-157.71484375,-365.234375,-302.24609375,-81.0546875
1755829630.395523,-129.8828125,-365.234375,-113.28125,-20.5078125
1755829630.399397,-124.51171875,-361.81640625,312.01171875,-20.5078125
1755829630.4032707,-148.4375,-365.234375,141.6015625,-94.23828125
1755829630.4071443,-145.01953125,-375.0,-496.09375,-98.6328125
1755829630.411018,-149.4140625,-375.48828125,-440.91796875,-76.66015625
1755829630.414892,-126.46484375,-365.72265625,230.95703125,-38.57421875
1755829630.4187658,-121.58203125,-348.6328125,283.203125,-64.453125
1755829630.4226396,-119.62890625,-336.9140625,-530.76171875,-70.80078125
1755829630.4265134,-136.23046875,-335.44921875,-671.38671875,-45.41015625
1755829630.4303873,-140.625,-317.87109375,165.52734375,-35.64453125
1755829630.4341395,-104.00390625,-291.50390625,167.96875,-38.0859375
1755829630.437892,-166.015625,-314.453125,-284.66796875,-123.53515625
1755829630.4416442,-187.01171875,-333.984375,-357.421875,-163.57421875
1755829630.445397,-122.55859375,-308.59375,60.05859375,-78.125
1755829630.449149,-69.82421875,-291.50390625,144.53125,-25.390625
1755829630.4529014,-124.51171875,-292.96875,-503.41796875,-103.02734375
1755829630.4566536,-184.08203125,-277.83203125,-636.23046875,-172.36328125
1755829630.4604058,-119.140625,-272.4609375,-122.55859375,-104.00390625
1755829630.4641583,-68.359375,-274.90234375,-4.39453125,-6.34765625
1755829630.4679103,-112.3046875,-263.18359375,-591.30859375,-53.22265625
1755829630.471663,-212.890625,-286.62109375,-734.86328125,-205.078125
1755829630.4754152,-144.04296875,-283.69140625,-296.875,-131.8359375
1755829630.4791684,-19.04296875,-254.39453125,-260.25390625,2.44140625
1755829630.4829218,-106.93359375,-251.953125,-461.9140625,-100.09765625
1755829630.4866753,-212.40234375,-251.46484375,-450.1953125,-219.23828125
1755829630.4904284,-141.6015625,-245.60546875,-335.44921875,-145.99609375
1755829630.4941816,-58.10546875,-229.00390625,-171.875,-16.11328125
1755829630.497935,-69.3359375,-225.5859375,-264.16015625,-53.22265625
1755829630.5016885,-190.91796875,-241.2109375,-426.7578125,-217.7734375
1755829630.5054417,-229.4921875,-256.34765625,-382.32421875,-226.07421875
1755829630.5091949,-83.0078125,-242.67578125,-513.671875,-41.9921875
1755829630.5129485,-126.46484375,-221.19140625,-534.1796875,-24.90234375
1755829630.5167017,-294.43359375,-219.7265625,-234.86328125,-208.0078125
1755829630.520455,-272.4609375,-211.9140625,-363.76953125,-234.375
1755829630.524188,-163.0859375,-189.453125,-266.6015625,-104.4921875
1755829630.5279212,-147.94921875,-184.08203125,106.4453125,-65.91796875
1755829630.5316544,-203.125,-179.6875,37.109375,-179.19921875
1755829630.5353878,-215.8203125,-187.01171875,-413.0859375,-194.3359375
1755829630.539121,-182.12890625,-187.01171875,-460.9375,-114.2578125
1755829630.542854,-155.76171875,-147.94921875,-170.41015625,-54.6875
1755829630.5465872,-243.65234375,-148.4375,-10.7421875,-133.30078125
1755829630.5503204,-280.2734375,-161.62109375,-227.05078125,-204.58984375
1755829630.5540538,-181.15234375,-167.48046875,-681.640625,-123.046875
1755829630.557787,-169.921875,-155.2734375,-218.75,-64.453125
1755829630.56152,-197.265625,-125.48828125,328.125,-115.234375
1755829630.5652533,-204.58984375,-110.3515625,-170.8984375,-169.921875
1755829630.5690222,-222.16796875,-107.91015625,-415.0390625,-139.6484375
1755829630.572791,-217.28515625,-81.0546875,64.94140625,-87.890625
1755829630.5765605,-177.734375,-3.41796875,295.8984375,-80.078125
1755829630.5803294,-210.9375,58.10546875,-62.5,-153.80859375
1755829630.5840983,-261.23046875,104.4921875,-377.44140625,-192.3828125
1755829630.5878673,-209.9609375,108.3984375,-171.38671875,-99.609375
1755829630.5916364,-175.29296875,102.5390625,133.7890625,-50.78125
1755829630.595405,-188.4765625,132.32421875,-325.1953125,-78.125
1755829630.5991745,-250.0,136.71875,-909.66796875,-144.04296875
1755829630.6029434,-273.92578125,144.53125,-314.453125,-160.15625
1755829630.6067126,-178.22265625,185.05859375,305.6640625,-49.8046875
1755829630.6104815,-183.10546875,218.26171875,205.078125,-68.84765625
1755829630.6142251,-248.53515625,238.28125,-125.48828125,-185.546875
1755829630.6179688,-227.05078125,263.671875,-117.67578125,-172.8515625
1755829630.6217122,-140.13671875,259.27734375,136.23046875,-7.32421875
1755829630.625456,-164.0625,225.09765625,132.8125,-20.01953125
1755829630.6291995,-250.9765625,219.23828125,-52.734375,-164.0625
1755829630.6329432,-233.88671875,215.8203125,-354.4921875,-145.01953125
1755829630.6366868,-137.6953125,218.26171875,-166.9921875,-30.76171875
1755829630.6404305,-97.16796875,235.3515625,-114.2578125,30.76171875
1755829630.644174,-225.5859375,236.328125,-292.96875,-98.6328125
1755829630.6479175,-277.34375,223.6328125,-250.0,-200.68359375
1755829630.6516612,-152.83203125,206.0546875,-208.49609375,-85.9375
1755829630.6554048,-95.21484375,211.42578125,-109.86328125,0.48828125
1755829630.659163,-237.79296875,204.1015625,97.16796875,-105.46875
1755829630.6629212,-252.9296875,179.6875,-67.3828125,-163.0859375
1755829630.6666794,-165.52734375,171.875,-253.41796875,-83.984375
1755829630.6704376,-111.328125,175.78125,19.04296875,34.1796875
1755829630.6741958,-130.37109375,157.71484375,139.6484375,-4.8828125
1755829630.6779542,-192.87109375,144.04296875,-221.6796875,-129.8828125
1755829630.6817124,-132.32421875,161.62109375,-726.07421875,-38.57421875
1755829630.6854706,-91.30859375,151.85546875,-552.734375,30.2734375
1755829630.6892288,-164.0625,139.6484375,231.93359375,-68.359375
1755829630.692987,-186.03515625,138.671875,71.2890625,-100.5859375
1755829630.6967452,-187.01171875,131.34765625,-309.08203125,-88.8671875
1755829630.700503,-133.7890625,117.67578125,-93.75,-12.20703125
1755829630.7043643,-111.328125,104.98046875,211.42578125,10.7421875
1755829630.7082255,-147.94921875,102.5390625,106.93359375,-61.03515625
1755829630.712087,-152.34375,96.19140625,-424.8046875,-118.65234375
1755829630.715948,-120.60546875,83.49609375,-194.82421875,-91.30859375
1755829630.7198093,-72.265625,76.171875,363.28125,-4.8828125
1755829630.7236705,-89.35546875,71.77734375,152.83203125,-26.85546875
1755829630.7275317,-144.53125,57.12890625,-565.91796875,-70.3125
1755829630.7313929,-182.6171875,38.57421875,-376.953125,-75.1953125
1755829630.735254,-113.28125,40.52734375,310.546875,6.34765625
1755829630.7391152,-94.23828125,38.0859375,132.8125,39.0625
1755829630.7429764,-183.10546875,28.80859375,-244.62890625,-93.75
1755829630.7468376,-188.4765625,24.90234375,-203.125,-125.0
1755829630.7516503,-107.91015625,8.30078125,183.10546875,-11.23046875
1755829630.756463,-78.61328125,7.8125,243.1640625,41.50390625
1755829630.7612758,-153.80859375,10.7421875,-160.15625,-55.6640625
1755829630.7660882,-211.42578125,-9.27734375,-272.94921875,-133.30078125
1755829630.770901,-132.8125,-22.4609375,158.69140625,-73.2421875
1755829630.7757137,4.39453125,-21.484375,-24.90234375,77.63671875
1755829630.7805264,-84.9609375,-58.59375,-695.80078125,-8.7890625
1755829630.785339,-259.765625,-97.65625,-413.57421875,-194.3359375
1755829630.7901516,-158.69140625,-114.2578125,14.16015625,-78.125
1755829630.7949643,-64.94140625,-128.90625,180.17578125,6.8359375
1755829630.799777,-132.32421875,-156.73828125,157.2265625,-62.01171875
1755829630.8045895,-197.265625,-170.8984375,-64.453125,-136.71875
1755829630.80839,-141.11328125,-163.57421875,-145.99609375,-68.359375
1755829630.8121903,-74.70703125,-186.03515625,62.01171875,22.4609375
1755829630.8159904,-119.62890625,-218.26171875,222.65625,-43.9453125
1755829630.8197908,-175.29296875,-258.7890625,15.625,-130.37109375
1755829630.823591,-142.08984375,-301.26953125,-230.46875,-78.125
1755829630.8273911,-51.7578125,-332.03125,-213.37890625,31.25
1755829630.8311915,-74.70703125,-369.62890625,-27.34375,26.85546875
1755829630.8349917,-149.90234375,-405.2734375,-104.98046875,-67.3828125
1755829630.838792,-123.046875,-456.54296875,-342.7734375,-79.58984375
1755829630.8425922,-22.94921875,-512.6953125,-641.11328125,34.1796875
1755829630.8463926,-99.609375,-563.96484375,-182.12890625,-2.44140625
1755829630.8501928,-177.24609375,-616.2109375,264.6484375,-80.078125
1755829630.8539624,-165.0390625,-663.0859375,-186.03515625,-92.7734375
1755829630.8577323,-140.13671875,-714.84375,-217.7734375,-61.03515625
1755829630.861502,-101.07421875,-775.390625,297.8515625,-20.5078125
1755829630.8652718,-103.515625,-837.40234375,326.171875,-30.76171875
1755829630.8690414,-125.0,-902.83203125,-204.58984375,-75.68359375
1755829630.8728113,-94.23828125,-937.98828125,-437.01171875,-30.2734375
1755829630.876581,-56.640625,-939.94140625,-14.6484375,58.59375
1755829630.8803506,-76.171875,-967.28515625,406.25,15.625
1755829630.8841205,-91.796875,-995.60546875,-235.83984375,-25.87890625
1755829630.88789,-124.0234375,-984.375,-866.2109375,-48.33984375
1755829630.89166,-146.97265625,-980.46875,-33.203125,-58.10546875
1755829630.8954296,-79.58984375,-973.6328125,472.65625,9.27734375
1755829630.8991818,-116.69921875,-960.9375,56.640625,-45.41015625
1755829630.902934,-185.05859375,-959.9609375,-176.26953125,-131.34765625
1755829630.906686,-117.1875,-958.0078125,131.8359375,-57.6171875
1755829630.9104383,-36.1328125,-939.453125,425.78125,48.33984375
1755829630.9141903,-74.21875,-907.71484375,135.7421875,-12.20703125
1755829630.9179423,-145.01953125,-894.53125,-290.52734375,-92.7734375
1755829630.9216948,-134.27734375,-905.76171875,-183.10546875,-74.70703125
1755829630.925447,-61.5234375,-903.3203125,230.46875,15.625
1755829630.9291992,-85.44921875,-897.4609375,-130.37109375,33.69140625
1755829630.9329517,-229.98046875,-890.13671875,-300.29296875,-152.34375
1755829630.9367034,-169.921875,-889.16015625,86.9140625,-126.46484375
1755829630.9404557,-13.671875,-871.09375,98.14453125,54.6875
1755829630.945454,-50.78125,-835.44921875,39.0625,37.109375
1755829630.950452,-185.546875,-826.171875,79.1015625,-127.44140625
1755829630.9554503,-161.1328125,-805.17578125,-53.7109375,-133.7890625
1755829630.9604487,-76.171875,-779.296875,-45.8984375,27.83203125
1755829630.965447,-98.14453125,-781.73828125,177.734375,50.78125
1755829630.9704452,-142.578125,-784.66796875,7.8125,-40.52734375
1755829630.9754434,-166.50390625,-766.6015625,-254.8828125,-105.95703125
1755829630.9804416,-65.91796875,-754.39453125,-436.03515625,10.7421875
1755829630.9854398,-64.94140625,-767.08984375,-296.875,64.453125
1755829630.9904382,-177.24609375,-752.44140625,171.38671875,-77.1484375
1755829630.9954364,-169.43359375,-713.37890625,-70.3125,-119.140625
1755829631.0004346,-130.859375,-725.5859375,-168.9453125,-85.44921875
1755829631.0030591,-92.7734375,-732.421875,226.5625,7.32421875
1755829631.0056837,-105.46875,-695.3125,354.4921875,0.0
1755829631.008308,-156.25,-687.5,-127.44140625,-84.47265625
1755829631.0109324,-168.9453125,-693.359375,-409.1796875,-72.265625
1755829631.013557,-159.1796875,-670.8984375,133.30078125,3.41796875
1755829631.0161817,-118.65234375,-655.76171875,340.8203125,25.87890625
1755829631.018806,-128.41796875,-647.94921875,-116.2109375,-55.6640625
1755829631.0214305,-179.19921875,-634.27734375,-346.6796875,-85.9375
1755829631.024055,-152.83203125,-625.48828125,67.87109375,-27.83203125
1755829631.0266793,-91.30859375,-617.1875,517.578125,13.18359375
1755829631.0293038,-132.8125,-605.46875,211.42578125,-26.3671875
1755829631.0319283,-200.1953125,-591.30859375,-505.37109375,-83.49609375
1755829631.035551,-187.98828125,-576.66015625,-132.32421875,-71.77734375
1755829631.0391736,-106.93359375,-570.3125,508.30078125,38.0859375
1755829631.0427964,-134.765625,-552.734375,227.5390625,1.953125
1755829631.0464191,-211.42578125,-546.875,-174.8046875,-114.74609375
1755829631.0500417,-179.6875,-536.62109375,13.18359375,-63.96484375
1755829631.0536644,-78.125,-497.0703125,351.5625,54.6875
1755829631.0572872,-37.109375,-497.0703125,26.3671875,71.2890625
1755829631.0609095,-132.32421875,-488.76953125,-642.08984375,-48.33984375
1755829631.0645325,-213.37890625,-452.1484375,-299.31640625,-164.0625
1755829631.0681553,-110.3515625,-468.75,326.171875,-30.2734375
1755829631.0717778,-97.65625,-473.6328125,403.80859375,-6.34765625
1755829631.0754006,-176.26953125,-434.08203125,153.3203125,-128.90625
1755829631.0802913,-191.89453125,-427.24609375,-45.8984375,-145.5078125
1755829631.0851822,-104.4921875,-427.734375,71.77734375,-36.1328125
1755829631.0900729,-46.875,-416.50390625,157.71484375,-22.94921875
1755829631.0949636,-89.84375,-423.828125,-13.671875,-136.23046875
1755829631.0998545,-94.7265625,-446.77734375,-342.7734375,-116.69921875
1755829631.1047451,-49.31640625,-442.3828125,-416.50390625,17.08984375
1755829631.1096358,-6.8359375,-432.12890625,-442.87109375,95.703125
1755829631.1145267,-84.47265625,-436.03515625,-324.21875,-83.0078125
1755829631.1194174,-146.97265625,-429.19921875,-191.40625,-196.77734375
1755829631.124308,-65.4296875,-415.0390625,-300.29296875,-66.89453125
1755829631.129199,1.953125,-396.97265625,-127.44140625,63.96484375
1755829631.1340897,-75.1953125,-405.76171875,237.79296875,-18.06640625
1755829631.1379054,-126.46484375,-398.4375,35.64453125,-139.6484375
1755829631.141721,-94.7265625,-373.046875,-271.97265625,-88.8671875
1755829631.145537,-70.80078125,-391.6015625,43.45703125,-16.11328125
1755829631.1493526,-89.84375,-382.8125,452.63671875,-25.390625
1755829631.1531682,-124.51171875,-362.79296875,298.828125,-83.49609375
1755829631.156984,-100.09765625,-380.859375,-350.5859375,-88.37890625
1755829631.1607995,-82.03125,-374.51171875,-413.0859375,-38.0859375
1755829631.1646152,-89.35546875,-342.28515625,294.43359375,-17.578125
1755829631.1684308,-102.05078125,-334.47265625,334.47265625,-31.73828125
1755829631.1722467,-117.67578125,-315.91796875,-271.484375,-84.47265625
1755829631.1760623,-99.12109375,-333.0078125,-334.47265625,-82.51953125
1755829631.179878,-82.03125,-333.984375,212.40234375,12.6953125
1755829631.1836746,-106.4453125,-322.75390625,400.390625,0.48828125
1755829631.1874714,-152.34375,-354.98046875,-152.34375,-128.90625
1755829631.191268,-150.87890625,-322.265625,-223.14453125,-122.0703125
1755829631.1950643,-72.265625,-275.390625,366.2109375,17.578125
1755829631.1988614,-69.3359375,-281.25,381.8359375,25.390625
1755829631.202658,-133.30078125,-268.06640625,-106.4453125,-69.82421875
1755829631.2064545,-162.59765625,-256.34765625,-269.04296875,-104.4921875
1755829631.210251,-145.5078125,-267.08984375,289.0625,-51.7578125
1755829631.214048,-86.9140625,-255.859375,515.625,42.48046875
1755829631.2178445,-122.0703125,-257.32421875,-94.23828125,-27.34375
1755829631.2216413,-230.46875,-256.34765625,-212.890625,-163.57421875
1755829631.225438,-163.57421875,-261.71875,229.4921875,-50.78125
1755829631.229317,-48.828125,-264.16015625,321.2890625,83.0078125
1755829631.2331965,-90.8203125,-241.69921875,-6.8359375,18.06640625
1755829631.237075,-212.40234375,-262.6953125,-162.109375,-142.08984375
1755829631.2409546,-166.015625,-250.0,102.5390625,-57.6171875
1755829631.2448337,-39.55078125,-210.44921875,183.59375,105.95703125
1755829631.248713,-77.1484375,-231.93359375,-43.45703125,-1.46484375
1755829631.252592,-198.73046875,-242.1875,-56.15234375,-148.92578125
1755829631.2564712,-204.58984375,-229.00390625,97.65625,-119.62890625
1755829631.2603505,-70.3125,-242.1875,-111.81640625,72.75390625
1755829631.2642295,-78.61328125,-231.4453125,-235.3515625,66.40625
1755829631.2681088,-186.5234375,-211.42578125,73.73046875,-128.41796875
1755829631.271988,-186.5234375,-267.08984375,-16.6015625,-119.62890625
1755829631.275591,-148.4375,-262.6953125,148.92578125,-21.97265625
1755829631.2791936,-119.62890625,-214.84375,470.21484375,15.13671875
1755829631.2827966,-179.6875,-245.60546875,443.359375,-75.68359375
1755829631.2863994,-215.33203125,-285.64453125,134.765625,-141.11328125
1755829631.2900023,-117.67578125,-273.4375,-38.57421875,-25.87890625
1755829631.293605,-73.73046875,-228.515625,148.92578125,54.6875
1755829631.297208,-145.01953125,-245.1171875,200.68359375,-41.50390625
1755829631.300811,-182.12890625,-261.71875,-63.4765625,-132.8125
1755829631.3044138,-114.2578125,-262.20703125,-665.0390625,-26.3671875
1755829631.3080168,-116.2109375,-270.5078125,-287.109375,-2.9296875
1755829631.3116195,-185.546875,-261.23046875,481.93359375,-78.125
1755829631.3152225,-188.96484375,-265.625,47.36328125,-101.5625
1755829631.3189845,-142.08984375,-239.2578125,-220.21484375,-95.21484375
1755829631.322746,-100.09765625,-226.07421875,256.34765625,-13.671875
1755829631.326508,-112.3046875,-260.25390625,523.4375,-0.9765625
1755829631.3302698,-173.33984375,-268.06640625,139.16015625,-129.39453125
1755829631.3340316,-188.96484375,-248.53515625,-158.203125,-163.57421875
1755829631.3377934,-100.5859375,-188.96484375,-90.8203125,-8.30078125
1755829631.341555,-119.62890625,-159.66796875,387.20703125,10.7421875
1755829631.345317,-129.39453125,-155.76171875,142.578125,-37.109375
1755829631.349079,-139.16015625,-167.48046875,-606.93359375,-107.421875
1755829631.352841,-214.35546875,-211.9140625,132.8125,-162.59765625
1755829631.3566024,-145.5078125,-197.75390625,904.78515625,-56.15234375
1755829631.3603642,-137.20703125,-163.0859375,958.984375,-79.58984375
1755829631.3641205,-228.515625,-155.2734375,953.61328125,-174.31640625
1755829631.3678763,-218.26171875,-137.20703125,970.21484375,-134.765625
1755829631.3716326,-132.32421875,-106.93359375,968.26171875,-11.71875
1755829631.3753889,-132.32421875,-91.796875,967.7734375,-16.6015625
1755829631.3791451,-239.2578125,-125.0,967.7734375,-166.015625
1755829631.3829012,-226.5625,-100.5859375,967.7734375,-163.0859375
1755829631.3866572,-109.86328125,-6.34765625,967.7734375,-20.01953125
1755829631.3904135,-108.88671875,5.859375,967.7734375,-21.484375
1755829631.3941698,-241.69921875,-0.48828125,968.26171875,-176.26953125
1755829631.397926,-295.41015625,-1.953125,967.7734375,-225.5859375
1755829631.401682,-193.84765625,-29.78515625,968.26171875,-89.84375
1755829631.4054382,-156.73828125,-12.6953125,968.26171875,-37.59765625
1755829631.4091852,-240.234375,-6.34765625,968.26171875,-160.15625
1755829631.4129322,-300.29296875,-19.53125,967.7734375,-231.93359375
1755829631.4166791,-223.14453125,-5.37109375,967.7734375,-127.44140625
1755829631.420426,-173.33984375,7.8125,968.26171875,-57.6171875
1755829631.424173,-234.375,3.90625,967.7734375,-140.625
1755829631.42792,-281.73828125,6.34765625,967.7734375,-240.234375
1755829631.431667,-219.7265625,-8.7890625,968.26171875,-160.15625
1755829631.435414,-180.17578125,-47.36328125,967.7734375,-80.078125
1755829631.439161,-292.96875,-37.109375,967.7734375,-205.56640625
1755829631.442908,-296.38671875,-21.97265625,967.7734375,-243.1640625
1755829631.446655,-284.1796875,-13.18359375,967.7734375,-228.515625
1755829631.450402,-291.9921875,-5.859375,968.26171875,-201.66015625
1755829631.4542613,-313.4765625,32.2265625,967.7734375,-184.5703125
1755829631.4581203,-341.796875,59.08203125,967.7734375,-217.7734375
1755829631.4619796,-335.9375,72.75390625,967.7734375,-247.55859375
1755829631.465839,-294.921875,102.5390625,967.7734375,-202.63671875
1755829631.469698,-241.2109375,104.4921875,967.7734375,-119.140625
1755829631.4735572,-254.39453125,178.22265625,967.7734375,-140.625
1755829631.4774165,-280.2734375,329.58984375,967.7734375,-222.16796875
1755829631.4812756,-291.9921875,531.73828125,967.7734375,-244.140625
1755829631.4851348,-249.51171875,732.91015625,967.7734375,-165.52734375
1755829631.488994,-236.81640625,806.15234375,967.7734375,-131.8359375
1755829631.4928532,-284.66796875,723.6328125,967.7734375,-229.4921875
1755829631.4967124,-312.01171875,598.14453125,968.26171875,-257.8125
1755829631.5015364,-253.41796875,536.62109375,968.26171875,-148.4375
1755829631.5063603,-203.61328125,486.81640625,968.26171875,-112.3046875
1755829631.5111842,-265.13671875,534.1796875,967.7734375,-210.9375
1755829631.5160084,-293.45703125,664.0625,967.7734375,-227.05078125
1755829631.5208323,-232.91015625,775.390625,967.7734375,-134.765625
1755829631.5256562,-152.83203125,854.00390625,968.26171875,-28.80859375
1755829631.53048,-194.82421875,920.41015625,967.7734375,-128.41796875
1755829631.535304,-300.78125,950.1953125,967.7734375,-295.8984375
1755829631.5401282,-210.44921875,931.15234375,967.7734375,-143.06640625
1755829631.5449522,-129.8828125,921.38671875,967.7734375,-23.92578125
1755829631.549776,-177.734375,913.57421875,968.26171875,-120.1171875
1755829631.5546,-252.9296875,940.91796875,967.7734375,-220.21484375
1755829631.5595384,-197.75390625,971.19140625,967.7734375,-160.15625
1755829631.564477,-86.9140625,966.796875,967.7734375,-31.73828125
1755829631.569415,-131.34765625,967.7734375,967.7734375,-35.64453125
1755829631.5743537,-210.44921875,968.26171875,967.7734375,-145.01953125
1755829631.579292,-170.8984375,967.7734375,967.7734375,-119.62890625
1755829631.5842304,-84.9609375,967.7734375,967.7734375,11.71875
1755829631.589169,-105.95703125,967.7734375,967.7734375,-15.13671875
1755829631.5941074,-170.41015625,967.7734375,967.7734375,-120.60546875
1755829631.5990458,-153.80859375,968.26171875,967.7734375,-115.234375
1755829631.6039844,-88.8671875,967.7734375,967.7734375,-10.25390625
1755829631.6089227,-121.09375,967.7734375,968.26171875,-9.765625
1755829631.613861,-178.7109375,967.7734375,968.26171875,-98.14453125
1755829631.616492,-141.6015625,968.26171875,967.7734375,-110.3515625
1755829631.619123,-90.33203125,968.26171875,967.7734375,-41.015625
1755829631.621754,-85.44921875,968.26171875,967.7734375,3.90625
1755829631.6243849,-117.1875,967.7734375,968.26171875,-14.6484375
1755829631.6270158,-176.7578125,968.26171875,967.7734375,-99.609375
1755829631.6296468,-126.46484375,967.7734375,967.7734375,-76.171875
1755829631.632278,-61.5234375,968.26171875,968.26171875,11.71875
1755829631.634909,-95.21484375,968.26171875,967.7734375,-11.71875
1755829631.63754,-101.07421875,967.7734375,967.7734375,-42.96875
1755829631.6401708,-106.93359375,967.7734375,967.7734375,-63.96484375
1755829631.6428018,-92.28515625,968.26171875,968.26171875,-16.11328125
1755829631.6454327,-72.75390625,968.26171875,968.26171875,27.83203125
1755829631.649183,-88.37890625,967.7734375,968.26171875,-29.78515625
1755829631.6529336,-151.85546875,967.7734375,967.7734375,-111.328125
1755829631.656684,-151.85546875,967.7734375,967.7734375,-67.87109375
1755829631.6604342,-94.23828125,967.7734375,968.26171875,14.16015625
1755829631.6641846,-126.953125,968.26171875,968.26171875,-57.6171875
1755829631.667935,-154.78515625,967.7734375,967.7734375,-100.5859375
1755829631.6716857,-147.94921875,967.28515625,967.7734375,-59.5703125
1755829631.6754358,-61.5234375,969.23828125,967.7734375,41.9921875
1755829631.679186,-54.6875,962.890625,968.26171875,34.66796875
1755829631.682937,-199.70703125,952.1484375,967.7734375,-131.34765625
1755829631.686687,-184.5703125,960.9375,967.7734375,-116.69921875
1755829631.6904373,-65.91796875,968.75,967.7734375,22.4609375
1755829631.6942997,-72.265625,967.7734375,967.7734375,39.0625
1755829631.6981616,-165.52734375,968.26171875,968.26171875,-92.28515625
1755829631.7020235,-194.82421875,966.30859375,968.26171875,-148.92578125
1755829631.7058856,-93.26171875,968.26171875,968.26171875,13.671875
1755829631.7097478,-75.1953125,964.35546875,967.7734375,49.31640625
1755829631.7136097,-155.76171875,914.0625,967.7734375,-83.984375
1755829631.7174718,-182.6171875,879.8828125,967.7734375,-125.0
1755829631.721334,-86.42578125,865.234375,968.26171875,18.06640625
1755829631.725196,-48.828125,847.65625,968.26171875,68.84765625
1755829631.7290585,-153.3203125,833.984375,967.7734375,-89.84375
1755829631.7329202,-174.31640625,795.41015625,967.7734375,-125.9765625
1755829631.7367823,-153.3203125,762.6953125,968.26171875,-69.82421875
1755829631.740405,-122.0703125,739.74609375,967.7734375,-22.94921875
1755829631.7440276,-147.94921875,720.703125,968.26171875,-62.98828125
1755829631.7476504,-196.2890625,683.59375,967.7734375,-130.37109375
1755829631.7512732,-180.6640625,652.83203125,963.37890625,-93.75
1755829631.754896,-145.01953125,664.0625,965.33203125,3.90625
1755829631.7585187,-158.203125,640.13671875,968.26171875,-16.11328125
1755829631.7621412,-226.07421875,613.28125,974.609375,-126.953125
1755829631.765764,-204.58984375,598.14453125,907.2265625,-75.1953125
1755829631.7693868,-197.265625,586.42578125,920.8984375,-40.52734375
1755829631.7730093,-212.890625,595.21484375,978.515625,-58.59375
1755829631.776632,-193.359375,578.61328125,964.84375,-84.47265625
1755829631.7802548,-229.4921875,564.94140625,968.26171875,-141.11328125
1755829631.7852485,-208.49609375,564.94140625,967.7734375,-74.21875
1755829631.7902417,-145.99609375,560.05859375,968.75,3.41796875
1755829631.7952352,-155.2734375,537.109375,963.8671875,-40.52734375
1755829631.8002286,-224.12109375,507.8125,966.30859375,-132.32421875
1755829631.805222,-216.30859375,486.81640625,951.66015625,-101.5625
1755829631.8102157,-130.859375,490.234375,999.51171875,-0.48828125
1755829631.8152092,-86.9140625,479.00390625,806.640625,11.23046875
1755829631.8202026,-189.453125,461.42578125,624.0234375,-90.33203125
1755829631.825196,-270.99609375,476.5625,935.546875,-168.9453125
1755829631.8301897,-167.96875,462.40234375,989.2578125,-57.6171875
1755829631.835183,-150.390625,436.03515625,947.75390625,6.8359375
1755829631.8401763,-228.02734375,406.73828125,968.75,-109.375
1755829631.8437862,-246.58203125,402.83203125,967.7734375,-168.45703125
1755829631.8473964,-172.8515625,397.94921875,968.26171875,-48.828125
1755829631.8510065,-122.55859375,376.46484375,962.890625,23.92578125
1755829631.8546162,-200.68359375,353.515625,980.46875,-87.40234375
1755829631.8582263,-240.72265625,346.19140625,918.45703125,-141.11328125
1755829631.8618362,-145.01953125,354.4921875,856.4453125,-27.34375
1755829631.865446,-117.1875,324.70703125,942.3828125,8.30078125
1755829631.8690562,-178.7109375,305.6640625,960.9375,-73.73046875
1755829631.872666,-219.23828125,296.38671875,815.91796875,-157.71484375
1755829631.876276,-154.78515625,275.87890625,728.515625,-80.56640625
1755829631.8798862,-35.64453125,266.11328125,399.4140625,101.07421875
1755829631.883496,-118.65234375,272.94921875,542.48046875,-17.08984375
1755829631.8873591,-209.9609375,267.578125,852.5390625,-148.4375
1755829631.891222,-154.78515625,246.09375,585.9375,-80.078125
1755829631.895085,-85.44921875,237.3046875,736.328125,8.30078125
1755829631.8989482,-92.7734375,235.3515625,999.51171875,29.296875
1755829631.9028113,-144.53125,215.33203125,877.9296875,-44.43359375
1755829631.9066744,-110.3515625,180.17578125,211.42578125,-29.296875
1755829631.9105372,-83.49609375,156.73828125,229.00390625,28.80859375
1755829631.9144003,-123.53515625,146.484375,973.14453125,3.90625
1755829631.9182634,-134.765625,142.08984375,893.06640625,-74.21875
1755829631.9221263,-151.3671875,131.34765625,427.24609375,-124.51171875
1755829631.9259894,-128.90625,116.69921875,487.79296875,-51.7578125
1755829631.9298525,-67.3828125,92.28515625,866.69921875,55.6640625
1755829631.9336529,-76.66015625,64.453125,770.99609375,38.57421875
1755829631.9374535,-125.0,52.734375,274.4140625,-40.52734375
1755829631.941254,-123.53515625,-75.1953125,299.8046875,-59.08203125
1755829631.9450543,-82.51953125,-312.98828125,735.3515625,8.7890625
1755829631.948855,-80.078125,-469.23828125,805.6640625,44.921875
1755829631.9526553,-97.65625,-542.96875,396.484375,-23.92578125
1755829631.956456,-114.74609375,-606.4453125,199.21875,-54.19921875
1755829631.9602563,-98.6328125,-667.96875,616.2109375,-2.44140625
1755829631.964057,-79.1015625,-700.1953125,793.45703125,41.015625
1755829631.9678574,-122.55859375,-739.2578125,349.12109375,-18.06640625
1755829631.971658,-193.84765625,-770.01953125,303.22265625,-125.48828125
1755829631.9754584,-146.97265625,-790.0390625,666.015625,-39.0625
1755829631.979195,-58.10546875,-821.2890625,716.796875,78.125
1755829631.982932,-97.16796875,-841.30859375,538.57421875,-0.9765625
1755829631.9866686,-177.734375,-863.28125,343.75,-112.3046875
1755829631.9904056,-143.5546875,-889.6484375,408.69140625,-36.1328125
1755829631.9941423,-26.3671875,-887.20703125,447.75390625,102.05078125
1755829631.997879,-43.45703125,-906.25,314.94140625,60.05859375
1755829632.0016158,-173.33984375,-956.0546875,249.51171875,-95.21484375
1755829632.0053525,-170.41015625,-977.05078125,366.69921875,-108.3984375
1755829632.0090897,-40.0390625,-978.02734375,316.40625,47.8515625
1755829632.0128262,-59.08203125,-986.81640625,189.94140625,48.33984375
1755829632.016563,-195.80078125,-994.140625,425.78125,-118.65234375
1755829632.0202997,-162.109375,-1000.0,357.421875,-98.14453125
1755829632.024063,-89.84375,-1000.0,427.24609375,22.4609375
1755829632.0278263,-105.95703125,-1000.0,714.35546875,20.5078125
1755829632.0315895,-159.1796875,-1000.0,687.98828125,-67.3828125
1755829632.0353532,-143.06640625,-1000.0,319.82421875,-66.89453125
1755829632.0391166,-79.1015625,-1000.0,275.390625,21.484375
1755829632.04288,-41.50390625,-1000.0,577.63671875,68.359375
1755829632.0466433,-87.40234375,-1000.0,428.22265625,-0.48828125
1755829632.0504067,-169.921875,-1000.0,218.75,-95.21484375
1755829632.05417,-98.14453125,-1000.0,-142.578125,-19.53125
1755829632.057933,-97.16796875,-1000.0,229.98046875,4.8828125
1755829632.0616968,-176.7578125,-1000.0,858.3984375,-73.73046875
1755829632.0654602,-169.921875,-1000.0,372.55859375,-82.03125
1755829632.069208,-167.48046875,-1000.0,185.05859375,-78.61328125
1755829632.0729563,-135.25390625,-1000.0,602.5390625,-40.0390625
1755829632.0767045,-101.07421875,-1000.0,782.2265625,32.71484375
1755829632.0804522,-129.8828125,-1000.0,344.7265625,-19.04296875
1755829632.0842004,-153.3203125,-1000.0,34.1796875,-79.1015625
1755829632.0879483,-87.890625,-1000.0,243.65234375,21.484375
1755829632.0916965,-77.1484375,-1000.0,551.7578125,33.69140625
1755829632.0954444,-102.05078125,-1000.0,129.8828125,-10.25390625
1755829632.0991924,-145.01953125,-1000.0,-339.84375,-56.640625
1755829632.1029403,-168.45703125,-1000.0,172.8515625,-68.359375
1755829632.1066885,-97.65625,-1000.0,591.30859375,16.11328125
1755829632.1104364,-115.234375,-1000.0,347.65625,-15.625
1755829632.1141877,-217.7734375,-1000.0,-17.578125,-138.18359375
1755829632.1179392,-193.84765625,-1000.0,214.35546875,-126.46484375
1755829632.1216905,-56.640625,-1000.0,478.515625,44.43359375
1755829632.125442,-64.453125,-1000.0,431.15234375,39.55078125
1755829632.1291933,-176.7578125,-1000.0,218.26171875,-105.95703125
1755829632.1329446,-174.8046875,-1000.0,-44.921875,-94.23828125
1755829632.136696,-81.54296875,-996.58203125,23.92578125,31.25
1755829632.1404474,-68.84765625,-989.74609375,-20.01953125,55.6640625
1755829632.144199,-184.08203125,-985.3515625,-70.3125,-111.328125
1755829632.1479502,-214.84375,-974.12109375,58.59375,-154.296875
1755829632.1517017,-102.5390625,-968.75,72.265625,-5.859375
1755829632.155453,-76.171875,-963.8671875,314.94140625,49.31640625
1755829632.1593273,-162.59765625,-953.125,319.82421875,-68.84765625
1755829632.1632016,-183.59375,-921.875,20.01953125,-144.04296875
1755829632.1670756,-89.84375,-902.34375,-163.57421875,-3.41796875
1755829632.17095,-65.4296875,-896.484375,-75.68359375,63.96484375
1755829632.1748242,-144.04296875,-881.8359375,125.48828125,-44.921875
1755829632.1786983,-173.33984375,-864.2578125,-219.23828125,-93.75
1755829632.1825728,-107.421875,-841.796875,-675.78125,-4.39453125
1755829632.1864471,-71.77734375,-829.1015625,-563.4765625,65.4296875
1755829632.1903214,-163.57421875,-826.66015625,-20.99609375,-33.69140625
1755829632.1941955,-189.453125,-821.77734375,-261.23046875,-87.890625
1755829632.1980698,-164.0625,-810.05859375,-694.82421875,-88.37890625
1755829632.201944,-125.9765625,-801.7578125,-482.421875,-25.87890625
1755829632.2066388,-147.94921875,-836.42578125,-223.14453125,-17.578125
1755829632.2113338,-200.1953125,-851.07421875,-500.0,-101.07421875
1755829632.2160285,-155.2734375,-813.96484375,-912.109375,-97.16796875
1755829632.2207234,-86.9140625,-806.640625,-923.828125,6.34765625
1755829632.225418,-85.44921875,-788.57421875,-601.07421875,40.52734375
1755829632.230113,-110.83984375,-771.97265625,-716.30859375,-12.6953125
1755829632.2348075,-109.375,-788.0859375,-1000.0,-38.57421875
1755829632.2395024,-148.4375,-799.31640625,-896.484375,-56.640625
1755829632.2441974,-151.85546875,-784.66796875,-508.30078125,-41.9921875
1755829632.248892,-121.09375,-770.99609375,-632.8125,-9.765625
1755829632.253587,-194.3359375,-781.25,-1000.0,-110.3515625
1755829632.2582817,-182.12890625,-785.64453125,-1000.0,-126.953125
1755829632.2621408,-87.890625,-774.90234375,-775.390625,12.20703125
1755829632.266,-77.63671875,-763.671875,-741.2109375,41.50390625
1755829632.2698593,-163.57421875,-785.15625,-1000.0,-88.8671875
1755829632.2737184,-187.98828125,-790.52734375,-776.3671875,-131.8359375
1755829632.2775774,-110.3515625,-752.9296875,106.93359375,-13.671875
1755829632.2814367,-42.48046875,-735.3515625,541.50390625,102.05078125
1755829632.285296,-102.05078125,-727.05078125,492.1875,18.06640625
1755829632.289155,-205.56640625,-713.37890625,714.35546875,-130.859375
1755829632.293014,-159.1796875,-718.26171875,952.63671875,-68.84765625
1755829632.296873,-53.7109375,-721.6796875,702.63671875,78.125
1755829632.3007326,-120.1171875,-725.5859375,347.16796875,-3.90625
1755829632.3045917,-230.46875,-713.8671875,279.78515625,-158.69140625
1755829632.3084185,-157.71484375,-684.5703125,105.46875,-75.68359375
1755829632.3122451,-87.890625,-677.734375,151.85546875,37.59765625
1755829632.316072,-112.79296875,-678.22265625,189.94140625,-9.765625
1755829632.3198986,-171.875,-677.24609375,-3.90625,-125.0
1755829632.3237257,-159.1796875,-668.9453125,-153.80859375,-92.7734375
1755829632.3275523,-56.640625,-644.04296875,33.203125,61.5234375
1755829632.331379,-92.28515625,-635.25390625,507.32421875,29.296875
1755829632.3352058,-192.87109375,-643.5546875,725.5859375,-111.328125
1755829632.3390324,-163.57421875,-638.671875,654.78515625,-103.02734375
1755829632.3428593,-58.10546875,-623.53515625,619.62890625,26.85546875
1755829632.346686,-101.07421875,-604.00390625,867.67578125,11.23046875
1755829632.3505127,-183.59375,-589.35546875,998.046875,-98.14453125
1755829632.3542595,-175.78125,-592.7734375,951.171875,-119.62890625
1755829632.3580065,-152.34375,-589.35546875,971.6796875,-53.7109375
1755829632.3617532,-143.5546875,-575.1953125,962.890625,-16.6015625
1755829632.3655002,-188.96484375,-567.3828125,985.3515625,-98.14453125
1755829632.369247,-204.1015625,-569.3359375,891.6015625,-123.53515625
1755829632.372994,-166.50390625,-560.05859375,880.859375,-75.1953125
1755829632.3767407,-159.66796875,-557.6171875,961.9140625,-51.26953125
1755829632.3804874,-187.98828125,-567.87109375,999.51171875,-86.42578125
1755829632.3842344,-180.17578125,-574.70703125,766.11328125,-95.703125
1755829632.3879812,-188.4765625,-550.29296875,632.8125,-124.51171875
1755829632.3917282,-188.96484375,-512.6953125,966.796875,-100.5859375
1755829632.395475,-147.94921875,-520.5078125,999.51171875,-26.3671875
1755829632.401608,-196.2890625,-521.484375,662.59765625,-116.69921875
1755829632.407741,-237.79296875,-504.39453125,340.33203125,-169.921875
1755829632.413874,-169.921875,-486.81640625,482.91015625,-81.54296875
1755829632.4200072,-110.3515625,-483.88671875,536.62109375,1.46484375
1755829632.4261403,-163.0859375,-500.48828125,119.62890625,-75.68359375
1755829632.4322734,-222.65625,-503.41796875,-370.60546875,-152.83203125
1755829632.4384062,-189.94140625,-480.46875,-340.8203125,-100.09765625
1755829632.4445393,-124.51171875,-459.9609375,-59.08203125,-13.671875
1755829632.4506724,-105.46875,-466.30859375,-600.5859375,14.6484375
1755829632.4568057,-207.03125,-468.75,-956.54296875,-105.46875
1755829632.4629383,-197.75390625,-455.078125,-644.53125,-127.9296875
1755829632.4690716,-84.9609375,-433.59375,-541.50390625,15.13671875
1755829632.4704185,-87.890625,-429.6875,-588.8671875,47.8515625
1755829632.4717655,-151.3671875,-439.453125,-819.82421875,-67.87109375
1755829632.4731123,-142.08984375,-439.94140625,-973.6328125,-70.80078125
1755829632.4744594,-29.78515625,-436.03515625,-765.13671875,88.8671875
1755829632.4758062,-42.96875,-438.4765625,157.71484375,93.26171875
1755829632.4771533,-150.87890625,-444.82421875,967.28515625,-51.26953125
1755829632.4785,-156.25,-437.5,955.078125,-101.5625
1755829632.479847,-50.78125,-424.8046875,952.1484375,36.1328125
1755829632.481194,-34.1796875,-412.59765625,971.6796875,90.33203125
1755829632.4825408,-147.4609375,-403.80859375,967.7734375,-57.6171875
1755829632.483888,-178.22265625,-401.3671875,967.7734375,-116.69921875
1755829632.4852347,-134.27734375,-406.73828125,968.26171875,-36.62109375
1755829632.48901,-80.56640625,-406.73828125,968.26171875,38.0859375
1755829632.492785,-93.75,-401.3671875,968.26171875,-9.765625
1755829632.49656,-138.671875,-392.08984375,968.26171875,-81.0546875
1755829632.500335,-119.140625,-387.6953125,967.7734375,-36.1328125
1755829632.50411,-68.359375,-390.13671875,968.26171875,48.33984375
1755829632.5078852,-59.5703125,-383.7890625,968.26171875,45.8984375
1755829632.5116603,-115.72265625,-400.390625,967.7734375,-27.34375
1755829632.5154357,-88.8671875,-408.203125,967.7734375,-5.37109375
1755829632.5192103,-85.44921875,-394.53125,968.26171875,7.8125
1755829632.5229857,-125.48828125,-389.6484375,968.26171875,-15.13671875
1755829632.5267606,-125.0,-395.5078125,968.26171875,-7.8125
1755829632.5305357,-137.20703125,-396.97265625,968.26171875,-79.1015625
1755829632.534283,-93.26171875,-386.23046875,968.26171875,-24.4140625
1755829632.53803,-57.6171875,-391.11328125,967.7734375,74.21875
1755829632.5417776,-91.30859375,-402.83203125,967.7734375,20.5078125
1755829632.5455248,-139.16015625,-381.8359375,967.7734375,-66.89453125
1755829632.549272,-93.75,-370.1171875,967.7734375,-16.6015625
1755829632.5530195,-41.015625,-385.7421875,968.26171875,83.0078125
1755829632.5567667,-45.8984375,-384.27734375,967.7734375,81.0546875
1755829632.560514,-127.9296875,-394.04296875,967.28515625,-26.3671875
1755829632.5642612,-175.29296875,-401.85546875,967.7734375,-63.96484375
1755829632.5680084,-75.1953125,-386.23046875,968.26171875,54.6875
1755829632.571756,-58.59375,-375.48828125,967.7734375,66.89453125
1755829632.575503,-146.97265625,-374.51171875,967.7734375,-51.7578125
1755829632.5803318,-160.15625,-362.79296875,967.7734375,-96.19140625
1755829632.5851605,-86.9140625,-356.93359375,967.7734375,1.953125
1755829632.5899892,-75.68359375,-373.53515625,968.26171875,63.4765625
1755829632.594818,-129.8828125,-365.72265625,964.84375,-23.4375
1755829632.5996466,-155.2734375,-359.86328125,969.23828125,-93.75
1755829632.604475,-95.21484375,-361.328125,975.09765625,9.765625
1755829632.6093037,-25.87890625,-347.16796875,876.46484375,106.93359375
1755829632.6141324,-124.51171875,-347.65625,908.69140625,-11.71875
1755829632.618961,-193.84765625,-345.703125,985.83984375,-131.34765625
1755829632.6237898,-106.93359375,-338.8671875,933.10546875,-38.0859375
1755829632.6286185,-54.6875,-315.91796875,944.82421875,54.19921875
1755829632.6334472,-95.21484375,-305.6640625,946.2890625,11.23046875
1755829632.6372547,-173.33984375,-327.1484375,868.1640625,-85.44921875
1755829632.6410625,-132.32421875,-319.82421875,644.04296875,-58.10546875
1755829632.6448698,-65.91796875,-323.2421875,639.6484375,38.57421875
1755829632.648677,-99.609375,-316.40625,983.88671875,13.18359375
1755829632.652485,-136.71875,-299.31640625,925.78125,-64.94140625
1755829632.6562924,-110.83984375,-303.7109375,319.82421875,-39.0625
1755829632.6601002,-85.9375,-305.6640625,343.26171875,23.92578125
1755829632.6639078,-120.60546875,-304.6875,999.51171875,-10.7421875
1755829632.6677153,-131.8359375,-324.21875,904.296875,-62.5
1755829632.6715229,-148.4375,-308.10546875,376.46484375,-92.7734375
1755829632.6753304,-140.625,-301.7578125,404.296875,-66.40625
1755829632.679138,-97.16796875,-315.4296875,837.890625,-3.90625
1755829632.6829858,-98.6328125,-300.29296875,671.875,-6.8359375
1755829632.6868334,-168.9453125,-289.55078125,183.10546875,-104.98046875
1755829632.690681,-142.08984375,-278.3203125,104.00390625,-65.91796875
1755829632.6945288,-88.37890625,-276.3671875,467.7734375,32.71484375
1755829632.698377,-105.46875,-281.25,619.140625,-3.41796875
1755829632.7022245,-102.5390625,-281.25,-135.7421875,-44.921875
1755829632.706072,-138.18359375,-256.8359375,-310.05859375,-67.87109375
1755829632.7099197,-120.1171875,-234.375,414.0625,-27.83203125
1755829632.7137675,-61.03515625,-241.69921875,502.9296875,33.69140625
1755829632.7176151,-95.703125,-252.9296875,40.52734375,-21.97265625
1755829632.7214627,-169.43359375,-251.46484375,-19.53125,-113.28125
1755829632.7253106,-125.9765625,-253.90625,308.59375,-41.015625
1755829632.7290614,-68.359375,-265.625,429.6875,50.29296875
1755829632.7328124,-124.51171875,-262.20703125,143.5546875,-33.69140625
1755829632.7365632,-194.3359375,-258.30078125,-47.36328125,-139.6484375
1755829632.740314,-145.99609375,-256.8359375,89.35546875,-42.96875
1755829632.7440648,-59.08203125,-247.0703125,116.69921875,71.2890625
1755829632.7478156,-73.73046875,-239.2578125,-84.9609375,22.4609375
1755829632.7515666,-141.6015625,-237.3046875,-307.6171875,-78.125
1755829632.7553174,-152.34375,-250.0,-225.09765625,-72.75390625
1755829632.7590685,-43.45703125,-255.37109375,-182.12890625,67.3828125
1755829632.7628193,-48.33984375,-257.8125,-414.55078125,61.5234375
1755829632.76657,-208.49609375,-258.7890625,-215.33203125,-131.34765625
1755829632.770321,-181.15234375,-255.859375,-236.328125,-115.234375
1755829632.7740834,-104.00390625,-273.92578125,-183.10546875,-5.859375
1755829632.777846,-100.09765625,-262.20703125,142.08984375,-12.20703125
1755829632.7816083,-146.484375,-248.53515625,76.171875,-88.37890625
1755829632.7853708,-157.71484375,-264.16015625,-292.96875,-86.9140625
1755829632.7891333,-93.26171875,-259.27734375,-419.921875,13.18359375
1755829632.7928958,-55.6640625,-248.046875,-227.5390625,58.59375
1755829632.7966585,-114.2578125,-244.140625,-146.97265625,-48.33984375
1755829632.8004208,-163.0859375,-236.328125,-308.10546875,-113.28125
1755829632.8041832,-78.125,-240.234375,-771.97265625,9.765625
1755829632.8079455,-100.09765625,-257.8125,-378.41796875,27.34375
1755829632.8117082,-157.71484375,-253.41796875,177.734375,-49.31640625
1755829632.8154707,-145.01953125,-245.1171875,-387.20703125,-74.70703125
1755829632.8192182,-140.625,-257.32421875,-546.875,-54.6875
1755829632.822966,-101.5625,-244.62890625,-21.484375,1.46484375
1755829632.8267136,-83.0078125,-222.16796875,65.4296875,22.4609375
1755829632.830461,-119.140625,-221.19140625,-497.55859375,-31.25
1755829632.8342085,-138.671875,-224.12109375,-791.50390625,-68.84765625
1755829632.8379562,-119.62890625,-238.76953125,-492.1875,-2.9296875
1755829632.841704,-115.234375,-259.27734375,-207.51953125,19.53125
1755829632.8454514,-134.27734375,-272.4609375,-528.80859375,-32.2265625
1755829632.8491988,-184.08203125,-279.78515625,-944.3359375,-115.234375
1755829632.8529463,-204.58984375,-252.44140625,-464.84375,-125.9765625
1755829632.8566942,-131.8359375,-238.76953125,0.0,-32.2265625
1755829632.8604417,-152.34375,-245.60546875,-291.015625,-59.08203125
1755829632.8641963,-235.3515625,-246.09375,-639.6484375,-161.62109375
1755829632.8679512,-217.7734375,-258.30078125,-413.57421875,-145.99609375
1755829632.871706,-133.30078125,-257.32421875,-98.6328125,-30.2734375
1755829632.8754606,-135.25390625,-257.8125,-331.54296875,-12.6953125
1755829632.8792152,-218.75,-264.16015625,-680.17578125,-137.20703125
1755829632.88297,-212.890625,-278.80859375,-679.19921875,-140.13671875
1755829632.886725,-135.7421875,-293.45703125,-454.1015625,-37.109375
1755829632.8904796,-118.65234375,-284.1796875,-619.62890625,-30.76171875
1755829632.8942342,-223.6328125,-265.625,-702.63671875,-149.90234375
1755829632.897989,-256.8359375,-255.37109375,-493.65234375,-181.640625
1755829632.901744,-152.83203125,-253.90625,-472.16796875,-35.15625
1755829632.9054985,-113.28125,-250.0,-308.59375,31.25
1755829632.909234,-189.94140625,-264.16015625,-394.04296875,-76.66015625
1755829632.9129696,-246.09375,-276.85546875,-579.58984375,-166.015625
1755829632.9167051,-148.4375,-257.32421875,-709.9609375,-38.0859375
1755829632.920441,-85.9375,-233.3984375,-550.29296875,30.76171875
1755829632.9241762,-161.62109375,-242.67578125,-250.9765625,-78.125
1755829632.9279118,-186.03515625,-264.6484375,-628.90625,-106.93359375
1755829632.9316475,-119.62890625,-274.4140625,-1000.0,-26.85546875
1755829632.935383,-76.171875,-257.8125,-758.30078125,35.64453125
1755829632.9391186,-141.6015625,-243.1640625,-237.3046875,-47.36328125
1755829632.9428542,-165.0390625,-250.9765625,-479.4921875,-97.65625
1755829632.9465897,-165.52734375,-249.0234375,-768.5546875,-80.078125
1755829632.9503253,-111.328125,-240.72265625,-440.91796875,-3.41796875
1755829632.9551597,-95.21484375,-236.81640625,-190.91796875,35.64453125
1755829632.9599943,-153.80859375,-259.27734375,-478.515625,-32.2265625
1755829632.9648287,-167.96875,-284.1796875,-848.6328125,-93.26171875
1755829632.9696634,-127.44140625,-269.53125,-672.36328125,-40.0390625
1755829632.9744978,-76.66015625,-255.37109375,-338.37890625,33.69140625
1755829632.9793324,-95.703125,-267.08984375,-579.1015625,8.30078125
1755829632.9841669,-97.65625,-271.97265625,-1000.0,-18.5546875
1755829632.9890013,-101.5625,-259.27734375,-881.8359375,-22.94921875
1755829632.993836,-105.95703125,-249.0234375,-349.12109375,-1.46484375
1755829632.9986703,-92.28515625,-261.71875,-360.83984375,11.71875
1755829633.003505,-134.765625,-268.06640625,-810.05859375,-74.21875
1755829633.0083394,-125.9765625,-259.27734375,-746.58203125,-82.03125
1755829633.0133944,-74.21875,-261.71875,-345.21484375,19.04296875
1755829633.018449,-79.1015625,-263.671875,-410.64453125,46.875
1755829633.023504,-123.53515625,-262.20703125,-833.0078125,-26.85546875
1755829633.0285587,-140.625,-257.32421875,-823.73046875,-73.2421875
1755829633.0336137,-68.84765625,-250.48828125,-479.4921875,16.11328125
1755829633.0386686,-0.9765625,-258.30078125,-597.65625,112.3046875
1755829633.043723,-95.703125,-267.08984375,-934.5703125,-5.859375
1755829633.0487783,-178.7109375,-259.765625,-743.65234375,-118.1640625
1755829633.053833,-85.44921875,-253.90625,-552.734375,-6.34765625
1755829633.058888,0.48828125,-256.8359375,-678.22265625,99.609375
1755829633.063943,-67.3828125,-266.6015625,-777.34375,19.04296875
1755829633.0689976,-164.0625,-270.99609375,-691.89453125,-96.6796875
1755829633.0716274,-108.3984375,-273.4375,-642.08984375,-30.76171875
1755829633.074257,-47.36328125,-277.34375,-450.1953125,57.12890625
1755829633.076887,-71.77734375,-288.0859375,-506.8359375,19.53125
1755829633.0795164,-134.27734375,-292.48046875,-732.421875,-87.890625
1755829633.0821462,-110.3515625,-296.38671875,-665.0390625,-54.19921875
1755829633.084776,-115.234375,-354.00390625,-539.0625,-62.98828125
1755829633.0874054,-131.34765625,-406.73828125,-852.5390625,-97.16796875
1755829633.0900352,-71.77734375,-401.3671875,-861.328125,1.46484375
1755829633.092665,-72.265625,-386.71875,-425.29296875,25.390625
1755829633.0952945,-114.2578125,-402.34375,-587.890625,-43.45703125
1755829633.0979242,-125.48828125,-438.4765625,-1000.0,-75.1953125
1755829633.100554,-83.0078125,-444.3359375,-921.875,-6.8359375
1755829633.1043048,-94.23828125,-415.0390625,-464.84375,8.7890625
1755829633.1080556,-118.1640625,-406.73828125,-373.046875,-30.76171875
1755829633.1118062,-151.85546875,-411.62109375,-800.78125,-86.9140625
1755829633.115557,-142.08984375,-405.76171875,-861.328125,-70.3125
1755829633.1193078,-76.171875,-398.4375,-466.30859375,6.8359375
1755829633.1230583,-77.1484375,-399.4140625,-479.00390625,4.8828125
1755829633.1268091,-95.703125,-411.62109375,-916.50390625,-30.76171875
1755829633.13056,-124.51171875,-408.69140625,-935.546875,-57.12890625
1755829633.1343107,-145.01953125,-397.94921875,-472.16796875,-48.828125
1755829633.1380615,-101.07421875,-395.5078125,-263.671875,-5.859375
1755829633.141812,-149.90234375,-394.04296875,-608.88671875,-82.51953125
1755829633.145563,-179.6875,-389.6484375,-820.3125,-116.69921875
1755829633.1506703,-103.515625,-384.27734375,-694.3359375,-15.13671875
1755829633.1557777,-71.2890625,-374.0234375,-448.73046875,24.90234375
1755829633.1608849,-119.140625,-375.9765625,-711.9140625,-60.546875
1755829633.1659925,-175.78125,-357.91015625,-943.84765625,-144.04296875
1755829633.1710994,-135.25390625,-346.6796875,-601.07421875,-60.05859375
1755829633.1762068,-64.453125,-364.2578125,-522.94921875,62.98828125
1755829633.1813142,-75.68359375,-345.21484375,-856.93359375,20.99609375
1755829633.1864214,-182.12890625,-335.44921875,-966.30859375,-128.41796875
1755829633.1915288,-167.48046875,-328.125,-655.2734375,-98.14453125
1755829633.1966362,-64.453125,-323.2421875,-495.1171875,51.26953125
1755829633.2017434,-91.796875,-323.2421875,-597.16796875,27.83203125
1755829633.2068508,-177.24609375,-309.08203125,-734.375,-99.12109375
1755829633.21042,-145.99609375,-295.41015625,-828.125,-91.796875
1755829633.2139895,-71.2890625,-302.24609375,-722.16796875,35.64453125
1755829633.217559,-68.359375,-308.59375,-625.0,58.59375
1755829633.2211285,-149.90234375,-287.109375,-781.73828125,-61.03515625
1755829633.224698,-181.640625,-293.9453125,-913.57421875,-105.95703125
1755829633.2282674,-73.2421875,-300.78125,-951.171875,29.78515625
1755829633.2318368,-71.2890625,-293.9453125,-724.609375,48.33984375
1755829633.2354064,-145.01953125,-295.41015625,-542.48046875,-67.87109375
1755829633.2389758,-164.55078125,-290.52734375,-771.97265625,-104.98046875
1755829633.2425451,-68.84765625,-300.78125,-974.12109375,20.5078125
1755829633.2461147,-35.15625,-290.52734375,-853.02734375,75.68359375
1755829633.249684,-153.3203125,-274.4140625,-469.7265625,-56.640625
1755829633.2534902,-178.7109375,-303.7109375,-690.4296875,-96.6796875
1755829633.2572963,-146.97265625,-309.5703125,-893.5546875,-66.89453125
1755829633.2611022,-114.2578125,-289.55078125,-487.3046875,1.46484375
1755829633.2649083,-115.72265625,-266.11328125,-312.01171875,-4.39453125
1755829633.2687144,-144.53125,-264.16015625,-705.56640625,-81.0546875
1755829633.2725203,-142.08984375,-272.4609375,-999.51171875,-85.44921875
1755829633.276327,-106.93359375,-260.25390625,-830.078125,-21.97265625
1755829633.2801328,-126.46484375,-257.8125,-496.58203125,-26.3671875
1755829633.283939,-157.2265625,-283.69140625,-609.375,-86.42578125
1755829633.2877448,-121.58203125,-284.1796875,-1000.0,-49.31640625
1755829633.2915509,-146.484375,-254.39453125,-696.2890625,-47.8515625
1755829633.295357,-123.53515625,-239.74609375,-200.1953125,-13.18359375
1755829633.2991247,-111.328125,-238.76953125,-477.05078125,-34.66796875
1755829633.3028922,-163.0859375,-245.1171875,-915.52734375,-121.09375
1755829633.3066597,-146.97265625,-250.9765625,-797.8515625,-80.56640625
1755829633.3104274,-91.796875,-235.83984375,-392.08984375,16.11328125
1755829633.3141952,-108.88671875,-228.515625,-513.671875,-4.39453125
1755829633.3179626,-163.57421875,-252.44140625,-979.4921875,-107.421875
1755829633.32173,-175.78125,-269.53125,-886.71875,-136.71875
1755829633.325498,-143.06640625,-247.55859375,-360.83984375,-53.7109375
1755829633.3292656,-62.5,-220.21484375,-564.94140625,69.82421875
1755829633.333033,-123.046875,-211.42578125,-1000.0,-19.04296875
1755829633.3368006,-229.4921875,-206.54296875,-842.7734375,-145.5078125
1755829633.3405683,-128.41796875,-199.70703125,-532.71484375,-36.1328125
1755829633.3443162,-78.125,-198.2421875,-404.296875,17.08984375
1755829633.3480642,-155.76171875,-213.8671875,-545.41015625,-82.03125
1755829633.351812,-194.3359375,-225.09765625,-708.49609375,-136.71875
1755829633.3555598,-137.6953125,-224.609375,-640.13671875,-38.0859375
1755829633.3593078,-88.8671875,-223.14453125,-509.27734375,37.59765625
1755829633.3630557,-119.62890625,-229.98046875,-673.33984375,-14.16015625
1755829633.3668036,-192.87109375,-227.5390625,-940.4296875,-122.55859375
1755829633.3705516,-145.01953125,-222.16796875,-871.58203125,-88.8671875
1755829633.3742995,-50.78125,-218.26171875,-870.1171875,41.015625
1755829633.3780472,-139.6484375,-206.54296875,-619.62890625,-38.0859375
1755829633.3817952,-194.82421875,-216.30859375,-587.890625,-126.953125
1755829633.385543,-140.625,-226.07421875,-935.05859375,-72.75390625
1755829633.3892877,-90.33203125,-211.9140625,-756.34765625,5.859375
1755829633.393032,-118.65234375,-209.9609375,-398.92578125,-19.04296875
1755829633.396777,-181.640625,-227.05078125,-608.88671875,-86.42578125
1755829633.4005213,-171.38671875,-224.12109375,-945.80078125,-85.9375
1755829633.404266,-102.05078125,-221.19140625,-791.015625,-6.34765625
1755829633.4080105,-72.265625,-219.23828125,-563.4765625,34.66796875
1755829633.4117548,-142.08984375,-220.703125,-814.453125,-55.17578125
1755829633.4154994,-143.5546875,-230.95703125,-1000.0,-73.73046875
1755829633.419244,-116.69921875,-219.7265625,-862.3046875,-29.78515625
1755829633.4229884,-154.296875,-221.6796875,-432.6171875,-38.0859375
1755829633.426733,-161.1328125,-250.0,-453.61328125,-48.33984375
1755829633.4304776,-192.87109375,-240.234375,-864.2578125,-119.140625
1755829633.434211,-176.26953125,-220.21484375,-879.39453125,-106.4453125
1755829633.437945,-124.0234375,-230.95703125,-461.42578125,-14.6484375
1755829633.441678,-102.5390625,-243.65234375,-483.88671875,2.9296875
1755829633.4454117,-165.52734375,-235.3515625,-918.9453125,-91.30859375
1755829633.449145,-204.58984375,-222.65625,-949.21875,-124.51171875
1755829633.4528785,-113.28125,-227.5390625,-705.56640625,-1.46484375
1755829633.456612,-67.87109375,-224.609375,-602.05078125,33.203125
1755829633.4603455,-130.859375,-220.21484375,-887.6953125,-61.5234375
1755829633.4640791,-215.33203125,-234.375,-946.77734375,-148.4375
1755829633.4678123,-159.66796875,-232.91015625,-492.67578125,-62.5
1755829633.4715462,-81.54296875,-198.2421875,-401.3671875,44.43359375
1755829633.4752796,-115.72265625,-181.640625,-668.45703125,-19.04296875
1755829633.479056,-175.78125,-208.0078125,-815.91796875,-133.30078125
1755829633.482832,-141.6015625,-207.51953125,-760.7421875,-79.1015625
1755829633.4866085,-62.98828125,-168.45703125,-568.359375,45.8984375
1755829633.4903843,-110.3515625,-156.25,-631.8359375,-9.27734375
1755829633.494161,-179.6875,-149.90234375,-827.1484375,-117.1875
1755829633.4979367,-130.859375,-156.25,-858.88671875,-80.078125
1755829633.501713,-29.78515625,-179.6875,-877.44140625,74.21875
1755829633.505489,-69.3359375,-161.1328125,-934.08203125,43.9453125
1755829633.5092654,-219.23828125,-129.39453125,-730.95703125,-145.99609375
1755829633.5130415,-171.875,-132.32421875,-736.81640625,-123.046875
1755829633.5168178,-88.37890625,-142.578125,-686.03515625,-18.06640625
1755829633.520594,-116.2109375,-152.83203125,-414.55078125,4.8828125
1755829633.525469,-184.08203125,-173.33984375,-545.8984375,-83.49609375
1755829633.5303442,-197.265625,-163.0859375,-933.10546875,-126.953125
1755829633.5352192,-130.859375,-137.20703125,-904.296875,-27.34375
1755829633.540094,-98.14453125,-139.6484375,-596.19140625,25.390625
1755829633.544969,-134.765625,-144.04296875,-707.03125,-39.55078125
1755829633.5498445,-169.921875,-161.1328125,-988.28125,-103.02734375
1755829633.5547192,-130.859375,-184.5703125,-1000.0,-40.0390625
1755829633.5595944,-111.328125,-176.26953125,-716.30859375,-1.953125
1755829633.564469,-122.0703125,-144.04296875,-648.4375,-29.296875
1755829633.5693443,-127.9296875,-143.5546875,-1000.0,-51.26953125
1755829633.5742197,-125.9765625,-150.390625,-969.23828125,-55.6640625
1755829633.5790944,-115.234375,-149.90234375,-732.421875,-18.06640625
1755829633.5829625,-132.8125,-158.203125,-567.3828125,-17.578125
1755829633.58683,-162.59765625,-161.62109375,-807.12890625,-91.30859375
1755829633.590698,-178.22265625,-159.1796875,-1000.0,-109.375
1755829633.594566,-138.18359375,-140.13671875,-892.08984375,-36.62109375
1755829633.5984335,-90.8203125,-142.578125,-671.875,11.23046875
1755829633.6023016,-96.19140625,-162.59765625,-847.16796875,-8.7890625
1755829633.6061697,-166.50390625,-155.2734375,-1000.0,-100.5859375
1755829633.6100376,-169.921875,-133.30078125,-947.265625,-97.65625
1755829633.6139054,-83.0078125,-124.51171875,-711.9140625,4.39453125
1755829633.6177733,-85.9375,-129.8828125,-833.49609375,-1.953125
1755829633.6216412,-167.48046875,-161.62109375,-1000.0,-93.26171875
1755829633.625509,-151.85546875,-178.7109375,-1000.0,-87.890625
1755829633.6292558,-91.30859375,-168.45703125,-859.375,2.9296875
1755829633.6330023,-100.5859375,-169.921875,-837.40234375,7.8125
1755829633.6367493,-187.01171875,-169.921875,-1000.0,-109.375
1755829633.640496,-196.77734375,-155.76171875,-993.1640625,-127.44140625
1755829633.6442428,-90.33203125,-156.25,-866.69921875,4.39453125
1755829633.6479893,-62.98828125,-170.41015625,-926.26953125,50.78125
1755829633.651736,-161.62109375,-159.66796875,-1000.0,-86.42578125
1755829633.6554828,-193.359375,-157.71484375,-990.234375,-142.578125
1755829633.6592295,-98.6328125,-161.1328125,-947.75390625,-6.34765625
1755829633.6629765,-50.29296875,-162.109375,-942.87109375,63.4765625
1755829633.666723,-167.48046875,-158.69140625,-950.68359375,-81.0546875
1755829633.6704698,-213.37890625,-159.66796875,-974.12109375,-154.78515625
1755829633.674204,-117.1875,-150.390625,-988.76953125,-49.31640625
1755829633.6779387,-58.59375,-141.6015625,-810.546875,34.66796875
1755829633.681673,-108.3984375,-168.45703125,-817.87109375,-34.66796875
1755829633.6854074,-190.91796875,-174.8046875,-1000.0,-144.53125
1755829633.689142,-141.6015625,-167.48046875,-1000.0,-67.87109375
1755829633.6928763,-65.4296875,-177.734375,-916.015625,43.9453125
1755829633.6966107,-140.625,-182.12890625,-791.015625,-51.26953125
1755829633.7003453,-218.26171875,-162.59765625,-882.32421875,-160.64453125
1755829633.7040796,-144.04296875,-175.29296875,-1000.0,-83.984375
1755829633.707814,-118.65234375,-196.2890625,-859.375,-18.5546875
1755829633.7115486,-180.6640625,-148.92578125,-509.27734375,-73.2421875
1755829633.715283,-190.91796875,-150.87890625,-729.4921875,-131.34765625
1755829633.7190526,-197.75390625,-189.453125,-1000.0,-144.53125
1755829633.7228224,-173.33984375,-186.5234375,-883.30078125,-83.0078125
1755829633.726592,-139.16015625,-172.36328125,-611.81640625,-28.3203125
1755829633.7303617,-147.94921875,-168.9453125,-786.1328125,-68.359375
1755829633.7341316,-183.59375,-163.0859375,-1000.0,-132.32421875
1755829633.7379012,-168.45703125,-173.828125,-995.60546875,-102.05078125
1755829633.7416708,-112.3046875,-163.0859375,-848.14453125,-30.76171875
1755829633.7454407,-130.37109375,-135.7421875,-855.95703125,-40.0390625
1755829633.7492104,-143.06640625,-164.55078125,-1000.0,-81.0546875
1755829633.75298,-190.91796875,-176.7578125,-929.6875,-126.46484375
1755829633.75675,-176.7578125,-164.55078125,-536.1328125,-75.68359375
1755829633.7605195,-120.60546875,-172.8515625,-551.7578125,-23.4375
1755829633.764269,-190.4296875,-177.24609375,-949.70703125,-126.953125
1755829633.768019,-207.03125,-176.26953125,-929.19921875,-153.3203125
1755829633.7717686,-129.39453125,-178.7109375,-611.81640625,-41.9921875
1755829633.7755182,-102.5390625,-179.6875,-570.3125,-2.9296875
1755829633.779268,-161.1328125,-167.96875,-832.51953125,-86.42578125
1755829633.7830176,-171.38671875,-176.7578125,-1000.0,-120.60546875
1755829633.7867672,-130.859375,-163.57421875,-850.09765625,-62.5
1755829633.790517,-57.6171875,-160.15625,-748.53515625,56.15234375
1755829633.7942667,-101.5625,-173.828125,-988.28125,4.39453125
1755829633.7980163,-216.30859375,-149.4140625,-903.3203125,-158.69140625
1755829633.8017662,-134.765625,-141.11328125,-712.40234375,-68.84765625
1755829633.8055158,-51.26953125,-153.80859375,-688.96484375,41.9921875
1755829633.809266,-112.3046875,-163.57421875,-608.3984375,-29.296875
1755829633.813016,-178.7109375,-161.1328125,-645.01953125,-124.51171875
1755829633.816766,-132.32421875,-163.57421875,-788.0859375,-75.1953125
1755829633.820516,-70.3125,-162.59765625,-549.31640625,19.04296875
1755829633.8242662,-96.19140625,-155.2734375,-370.1171875,5.37109375
1755829633.8280163,-148.4375,-161.62109375,-755.37109375,-73.2421875
1755829633.831766,-124.51171875,-169.921875,-1000.0,-72.265625
1755829633.8355162,-37.109375,-160.15625,-961.42578125,48.33984375
1755829633.8392663,-89.84375,-161.62109375,-557.6171875,28.80859375
1755829633.8430164,-158.203125,-178.22265625,-379.39453125,-84.9609375
1755829633.8467665,-134.765625,-172.36328125,-812.98828125,-80.078125
1755829633.8505166,-95.21484375,-146.484375,-825.68359375,-8.30078125
1755829633.854322,-61.5234375,-138.18359375,-335.44921875,24.90234375
1755829633.8581274,-98.6328125,-157.2265625,-387.6953125,-32.71484375
1755829633.8619328,-100.5859375,-162.59765625,-875.48828125,-56.640625
1755829633.8657382,-69.82421875,-153.3203125,-884.765625,-10.25390625
1755829633.8695436,-58.59375,-151.85546875,-517.578125,37.109375
1755829633.8733487,-62.98828125,-154.296875,-595.21484375,25.390625
1755829633.877154,-93.75,-165.52734375,-912.59765625,-34.1796875
1755829633.8809595,-75.68359375,-159.66796875,-909.66796875,-31.25
1755829633.884765,-83.49609375,-130.859375,-396.97265625,1.46484375
1755829633.8885703,-70.3125,-132.32421875,-105.46875,43.45703125
1755829633.8923757,-103.02734375,-145.5078125,-308.10546875,-30.76171875
1755829633.896181,-141.11328125,-149.90234375,-288.0859375,-83.0078125
1755829633.9010673,-93.26171875,-161.62109375,205.56640625,-4.39453125
1755829633.9059534,-37.59765625,-165.52734375,562.98828125,64.453125
1755829633.9108396,-75.68359375,-161.1328125,259.765625,1.953125
1755829633.9157257,-154.296875,-170.8984375,88.37890625,-88.37890625
1755829633.9206116,-113.28125,-175.78125,414.55078125,-28.80859375
1755829633.9254978,-26.85546875,-159.66796875,678.7109375,76.171875
1755829633.930384,-45.41015625,-145.01953125,234.86328125,49.8046875
1755829633.93527,-163.57421875,-137.20703125,-11.23046875,-100.5859375
1755829633.940156,-163.0859375,-143.06640625,529.296875,-112.79296875
1755829633.945042,-43.9453125,-144.04296875,729.00390625,36.62109375
1755829633.9499283,-66.89453125,-136.23046875,762.20703125,24.90234375
1755829633.9548144,-146.484375,-144.53125,596.6796875,-84.9609375
1755829633.9597435,-141.11328125,-165.0390625,492.1875,-78.125
1755829633.964673,-44.43359375,-173.828125,478.02734375,55.6640625
1755829633.9696023,-47.36328125,-158.203125,484.375,49.31640625
1755829633.9745317,-150.87890625,-144.04296875,555.6640625,-89.84375
1755829633.979461,-142.08984375,-146.484375,360.3515625,-96.6796875
1755829633.9843905,-44.921875,-164.55078125,128.90625,36.1328125
1755829633.9893196,-25.390625,-169.43359375,178.7109375,76.66015625
1755829633.9942489,-128.90625,-154.78515625,422.36328125,-60.05859375
1755829633.9991782,-176.7578125,-161.62109375,382.8125,-133.30078125
1755829634.0041077,-88.8671875,-183.59375,50.78125,-17.08984375
1755829634.0090368,-55.17578125,-155.2734375,215.8203125,59.08203125
1755829634.013966,-131.8359375,-141.11328125,590.8203125,-57.6171875
1755829634.0166504,-158.203125,-159.1796875,275.390625,-112.79296875
1755829634.0193348,-125.9765625,-158.69140625,137.6953125,-53.22265625
1755829634.0220191,-75.68359375,-149.4140625,481.4453125,-1.953125
1755829634.0247035,-75.68359375,-149.4140625,563.4765625,-10.25390625
1755829634.027388,-129.39453125,-166.015625,199.70703125,-77.63671875
1755829634.0300722,-127.9296875,-177.734375,-134.27734375,-74.70703125
1755829634.0327563,-88.8671875,-169.43359375,125.48828125,-8.7890625
1755829634.0354407,-78.125,-144.04296875,477.5390625,11.23046875
1755829634.038125,-104.4921875,-129.8828125,62.98828125,-43.9453125
1755829634.0408094,-150.390625,-130.37109375,-286.1328125,-93.26171875
1755829634.0434935,-154.296875,-129.8828125,52.734375,-62.5
1755829634.046178,-107.91015625,-105.46875,446.77734375,-2.44140625
1755829634.0498772,-70.80078125,-95.703125,125.9765625,-19.53125
1755829634.0535765,-94.23828125,-102.05078125,-489.74609375,-81.54296875
1755829634.0572758,-133.30078125,-101.07421875,-191.40625,-85.44921875
1755829634.0609748,-80.078125,-95.703125,367.67578125,14.6484375
1755829634.064674,-80.078125,-108.88671875,187.98828125,2.9296875
1755829634.0683732,-156.25,-137.20703125,-303.22265625,-86.9140625
1755829634.0720725,-144.04296875,-138.671875,-256.8359375,-74.21875
1755829634.0757716,-96.19140625,-130.859375,214.35546875,-31.73828125
1755829634.0794706,-37.109375,-143.06640625,-60.05859375,45.41015625
1755829634.08317,-105.46875,-158.203125,-648.92578125,-38.57421875
1755829634.0868692,-198.73046875,-149.4140625,-329.58984375,-172.36328125
1755829634.0905683,-108.3984375,-146.97265625,-18.06640625,-40.0390625
1755829634.094436,-77.1484375,-148.92578125,14.6484375,25.390625
1755829634.0983038,-145.99609375,-135.25390625,-115.234375,-91.796875
1755829634.1021714,-174.8046875,-123.53515625,-155.2734375,-138.18359375
1755829634.106039,-110.83984375,-120.1171875,-76.171875,-3.41796875
1755829634.109907,-72.75390625,-115.72265625,123.046875,57.12890625
1755829634.1137743,-111.328125,-132.32421875,-52.734375,-41.9921875
1755829634.1176422,-191.89453125,-144.04296875,-335.44921875,-132.32421875
1755829634.1215098,-114.74609375,-135.7421875,-244.140625,-68.84765625
1755829634.1253774,-7.32421875,-135.25390625,-377.44140625,61.03515625
1755829634.1292453,-122.55859375,-135.7421875,-205.56640625,-37.109375
1755829634.133113,-212.890625,-133.7890625,-69.82421875,-142.08984375
1755829634.1369803,-148.4375,-120.1171875,-413.57421875,-76.171875
1755829634.1430013,-63.4765625,-108.3984375,-183.10546875,19.53125
1755829634.149022,-91.30859375,-118.1640625,66.89453125,10.7421875
1755829634.155043,-183.10546875,-147.4609375,-200.1953125,-116.2109375
1755829634.1610637,-168.45703125,-159.66796875,-564.453125,-122.55859375
1755829634.1670845,-103.515625,-147.4609375,-398.4375,-45.8984375
1755829634.1731052,-100.09765625,-152.83203125,-9.27734375,-20.01953125
1755829634.1791258,-174.31640625,-166.9921875,-129.39453125,-103.515625
1755829634.1851466,-155.2734375,-157.71484375,-654.296875,-97.16796875
1755829634.1911674,-106.4453125,-140.13671875,-778.3203125,-20.01953125
1755829634.197188,-121.09375,-123.046875,31.25,-34.1796875
1755829634.203209,-127.44140625,-134.27734375,58.10546875,-44.43359375
1755829634.2092297,-172.8515625,-148.4375,-385.25390625,-128.90625
1755829634.2130232,-153.80859375,-136.23046875,-274.90234375,-110.3515625
1755829634.216817,-94.7265625,-130.859375,116.69921875,-7.8125
1755829634.2206106,-106.4453125,-154.296875,64.453125,-19.53125
1755829634.224404,-173.33984375,-153.3203125,-283.69140625,-131.34765625
1755829634.2281976,-157.71484375,-147.4609375,-353.02734375,-125.9765625
1755829634.2319913,-67.87109375,-152.34375,-213.8671875,-4.39453125
1755829634.235785,-53.22265625,-150.390625,-138.18359375,6.8359375
1755829634.2395785,-127.44140625,-160.64453125,-648.92578125,-63.4765625
1755829634.243372,-209.47265625,-161.62109375,-660.15625,-169.43359375
1755829634.2471657,-161.1328125,-151.3671875,-14.6484375,-91.796875
1755829634.2509594,-72.75390625,-156.73828125,-21.484375,33.203125
1755829634.2547529,-130.859375,-169.921875,-325.68359375,-63.96484375
1755829634.2560673,-246.09375,-172.36328125,-382.32421875,-188.4765625
1755829634.2573814,-202.1484375,-169.921875,-176.26953125,-139.16015625
1755829634.2586958,-78.125,-166.015625,-196.2890625,-1.953125
1755829634.26001,-115.234375,-146.484375,-410.64453125,-30.76171875
1755829634.2613244,-216.796875,-134.27734375,-395.5078125,-155.76171875
1755829634.2626386,-165.0390625,-135.7421875,-458.49609375,-93.26171875
1755829634.263953,-70.80078125,-142.578125,-521.484375,26.85546875
1755829634.2652674,-121.09375,-144.53125,-507.8125,-35.15625
1755829634.2665815,-216.30859375,-146.97265625,-405.76171875,-166.50390625
1755829634.267896,-188.4765625,-155.76171875,-431.640625,-134.765625
1755829634.26921,-117.67578125,-145.5078125,-365.72265625,-30.2734375
1755829634.2705245,-97.16796875,-144.04296875,-172.36328125,-18.06640625
1755829634.274392,-175.78125,-142.578125,-225.5859375,-111.328125
1755829634.2782595,-192.3828125,-141.11328125,-359.375,-123.53515625
1755829634.2821271,-52.24609375,-139.6484375,-663.0859375,34.66796875
1755829634.2859943,-57.12890625,-121.09375,-526.3671875,59.5703125
1755829634.2898622,-152.83203125,-105.95703125,-141.6015625,-76.171875
1755829634.2937298,-133.30078125,-108.3984375,-553.7109375,-108.88671875
1755829634.2975972,-90.8203125,-112.3046875,-863.28125,-28.3203125
1755829634.3014648,-113.28125,-111.81640625,-401.85546875,-17.578125
1755829634.3053322,-152.83203125,-104.4921875,-0.48828125,-62.01171875
1755829634.3091998,-147.94921875,-114.2578125,-473.6328125,-77.1484375
1755829634.3130672,-114.74609375,-133.7890625,-663.0859375,-60.546875
1755829634.3169348,-83.984375,-121.09375,-208.984375,0.9765625
1755829634.3217049,-99.12109375,-121.09375,1.46484375,-1.953125
1755829634.326475,-116.69921875,-152.34375,-481.93359375,-47.36328125
1755829634.331245,-125.9765625,-158.69140625,-775.390625,-66.89453125
1755829634.336015,-108.88671875,-140.13671875,-329.58984375,-35.15625
1755829634.340785,-97.65625,-139.6484375,-49.8046875,7.32421875
1755829634.345555,-81.54296875,-156.25,-553.7109375,-8.30078125
1755829634.350325,-134.27734375,-152.34375,-1000.0,-88.8671875
1755829634.3550951,-163.57421875,-124.0234375,-449.70703125,-111.328125
1755829634.3598652,-79.58984375,-113.28125,-7.32421875,-10.7421875
1755829634.3646352,-139.6484375,-120.60546875,-214.84375,-37.59765625
1755829634.3694053,-209.9609375,-136.71875,-416.9921875,-131.8359375
1755829634.3741753,-164.0625,-156.73828125,-328.125,-97.16796875
1755829634.37803,-74.21875,-142.578125,-134.765625,38.57421875
1755829634.381885,-87.40234375,-124.51171875,-274.4140625,12.6953125
1755829634.3857398,-208.984375,-148.92578125,-598.6328125,-124.51171875
1755829634.3895946,-216.30859375,-169.921875,-490.234375,-128.41796875
1755829634.3934495,-89.35546875,-151.85546875,-196.77734375,8.7890625
1755829634.3973043,-52.734375,-143.06640625,-507.32421875,53.7109375
1755829634.401159,-175.78125,-147.94921875,-725.5859375,-106.4453125
1755829634.405014,-185.05859375,-131.8359375,-473.14453125,-148.4375
1755829634.4088688,-78.125,-147.94921875,-356.93359375,-0.9765625
1755829634.4127235,-62.98828125,-162.59765625,-370.1171875,45.41015625
1755829634.4165783,-163.57421875,-151.3671875,-370.1171875,-91.30859375
1755829634.4204333,-218.75,-171.38671875,-481.4453125,-153.3203125
1755829634.4242218,-132.8125,-199.70703125,-540.52734375,-49.31640625
1755829634.4280105,-44.43359375,-181.15234375,-377.9296875,23.92578125
1755829634.431799,-113.76953125,-129.8828125,-286.62109375,-64.453125
1755829634.4355874,-166.9921875,-119.140625,-489.74609375,-135.7421875
1755829634.439376,-60.546875,-129.39453125,-844.7265625,11.23046875
1755829634.4431643,-26.3671875,-110.3515625,-744.140625,72.265625
1755829634.446953,-87.890625,-100.5859375,-382.8125,-48.828125
1755829634.4507415,-147.94921875,-129.8828125,-487.79296875,-119.140625
1755829634.45453,-66.89453125,-150.87890625,-875.0,-21.484375
1755829634.4583187,-25.390625,-127.44140625,-781.73828125,48.828125
1755829634.4621072,-119.62890625,-110.3515625,-199.21875,-48.828125
1755829634.4658957,-117.67578125,-118.65234375,-398.92578125,-90.33203125
1755829634.4708538,-118.65234375,-127.9296875,-803.7109375,-90.8203125
1755829634.475812,-105.46875,-139.16015625,-544.43359375,-54.19921875
1755829634.48077,-83.984375,-133.30078125,-233.88671875,-1.953125
1755829634.485728,-107.91015625,-125.0,-461.9140625,-45.8984375
1755829634.4906862,-140.625,-148.4375,-883.30078125,-111.81640625
1755829634.495644,-120.60546875,-152.83203125,-866.2109375,-59.08203125
1755829634.5006022,-89.35546875,-135.7421875,-450.68359375,15.13671875
1755829634.5055604,-99.12109375,-143.06640625,-458.0078125,-18.06640625
1755829634.5105186,-75.68359375,-155.76171875,-975.09765625,-46.875
1755829634.5154767,-100.09765625,-124.51171875,-824.21875,-49.31640625
1755829634.5204346,-97.16796875,-112.3046875,-150.390625,-30.2734375
1755829634.5253928,-58.59375,-140.13671875,-189.94140625,-0.9765625
1755829634.530218,-128.90625,-134.27734375,-530.76171875,-97.16796875
1755829634.5350432,-161.1328125,-118.1640625,-437.5,-128.90625
1755829634.5398686,-82.51953125,-107.91015625,-104.98046875,-8.7890625
1755829634.544694,-10.7421875,-105.95703125,-176.7578125,27.83203125
1755829634.5495193,-84.47265625,-114.74609375,-492.67578125,-78.125
1755829634.554345,-139.16015625,-128.90625,-601.07421875,-100.5859375
1755829634.5591698,-72.75390625,-117.67578125,-462.890625,-10.7421875
1755829634.5639951,-28.3203125,-98.14453125,-238.76953125,26.3671875
