timestamps,eeg_1,eeg_2,eeg_3,eeg_4
1755832694.9851036,-147.4609375,-38.0859375,-56.15234375,-158.69140625
1755832694.9887366,-119.62890625,-41.9921875,-55.6640625,-114.74609375
1755832694.9923694,-30.76171875,-41.50390625,-46.38671875,-2.9296875
1755832694.9960022,-41.9921875,-41.50390625,-39.55078125,-20.5078125
1755832694.9996352,-135.25390625,-41.50390625,-44.43359375,-137.6953125
1755832695.003268,-134.765625,-33.203125,-47.8515625,-133.7890625
1755832695.0069008,-27.83203125,-35.64453125,-46.875,-2.9296875
1755832695.0105338,-18.5546875,-41.50390625,-49.8046875,11.23046875
1755832695.0141666,-121.58203125,-37.109375,-52.734375,-124.51171875
1755832695.0177994,-141.6015625,-37.109375,-46.875,-148.4375
1755832695.0214324,-53.22265625,-38.0859375,-37.59765625,-30.2734375
1755832695.0250652,-9.27734375,-35.64453125,-36.1328125,21.97265625
1755832695.0300653,-81.54296875,-31.73828125,-38.0859375,-75.68359375
1755832695.0350654,-132.8125,-33.203125,-38.57421875,-143.06640625
1755832695.0400655,-66.40625,-33.203125,-39.55078125,-57.12890625
1755832695.0450656,-1.46484375,-26.85546875,-37.109375,21.484375
1755832695.0500658,-41.015625,-25.87890625,-34.66796875,-40.0390625
1755832695.055066,-108.88671875,-32.2265625,-38.57421875,-121.58203125
1755832695.0600662,-89.35546875,-40.0390625,-48.828125,-73.2421875
1755832695.0650663,-12.20703125,-39.55078125,-44.921875,13.671875
1755832695.0700665,-17.578125,-30.2734375,-37.109375,-14.16015625
1755832695.0750666,-113.28125,-31.25,-41.50390625,-105.95703125
1755832695.0800667,-123.046875,-41.015625,-40.52734375,-101.5625
1755832695.0850668,-35.15625,-42.48046875,-35.15625,-7.8125
1755832695.088761,-11.23046875,-40.52734375,-36.62109375,13.671875
1755832695.0924554,-91.796875,-33.203125,-41.015625,-89.84375
1755832695.0961497,-139.16015625,-32.2265625,-43.45703125,-141.6015625
1755832695.099844,-61.03515625,-36.1328125,-39.55078125,-47.36328125
1755832695.1035385,1.953125,-29.296875,-37.109375,13.671875
1755832695.1072326,-65.91796875,-29.78515625,-43.45703125,-67.3828125
1755832695.1109266,-139.16015625,-38.0859375,-51.7578125,-154.78515625
1755832695.114621,-90.33203125,-38.57421875,-60.546875,-89.84375
1755832695.1183152,-8.30078125,-35.15625,-57.6171875,12.20703125
1755832695.1220095,-36.1328125,-37.59765625,-51.7578125,-38.57421875
1755832695.1257038,-131.8359375,-44.921875,-60.05859375,-137.6953125
1755832695.129398,-116.69921875,-43.45703125,-62.5,-103.02734375
1755832695.1356273,-15.13671875,-37.109375,-53.22265625,-0.9765625
1755832695.141857,-5.859375,-39.0625,-51.26953125,-17.578125
1755832695.1480858,-93.75,-41.9921875,-49.8046875,-116.2109375
1755832695.154315,-116.2109375,-39.0625,-51.26953125,-132.32421875
1755832695.1605444,-29.78515625,-40.0390625,-55.6640625,-21.97265625
1755832695.1667736,17.08984375,-41.50390625,-52.24609375,32.2265625
1755832695.1730027,-72.75390625,-44.43359375,-50.78125,-84.47265625
1755832695.179232,-134.27734375,-38.57421875,-51.26953125,-146.97265625
1755832695.1854613,-56.15234375,-39.0625,-50.78125,-48.33984375
1755832695.1916904,6.34765625,-47.8515625,-47.36328125,17.08984375
1755832695.1979198,-50.78125,-46.875,-45.8984375,-66.40625
1755832695.204149,-122.55859375,-37.109375,-46.38671875,-138.18359375
1755832695.2054708,-86.42578125,-35.64453125,-41.015625,-73.73046875
1755832695.2067926,-3.41796875,-35.15625,-27.83203125,27.83203125
1755832695.2081144,-27.34375,-32.2265625,-30.76171875,-18.06640625
1755832695.2094362,-121.58203125,-33.203125,-41.9921875,-123.046875
1755832695.210758,-111.81640625,-40.0390625,-46.875,-91.796875
1755832695.2120798,-24.4140625,-47.8515625,-42.96875,11.71875
1755832695.2134016,-21.484375,-44.921875,-38.0859375,-6.8359375
1755832695.214723,-106.93359375,-38.57421875,-41.9921875,-121.09375
1755832695.2160451,-122.0703125,-33.69140625,-42.48046875,-128.90625
1755832695.217367,-35.15625,-38.0859375,-39.55078125,-24.4140625
1755832695.2186887,4.8828125,-32.2265625,-43.45703125,14.16015625
1755832695.2200105,-67.3828125,-30.76171875,-57.12890625,-70.80078125
1755832695.2237434,-123.046875,-39.55078125,-62.5,-124.51171875
1755832695.2274766,-61.5234375,-37.59765625,-59.08203125,-51.26953125
1755832695.2312095,-5.859375,-39.0625,-56.640625,9.765625
1755832695.2349424,-53.22265625,-37.59765625,-64.453125,-51.26953125
1755832695.2386756,-125.48828125,-44.43359375,-72.75390625,-130.37109375
1755832695.2424085,-107.91015625,-49.8046875,-66.40625,-91.30859375
1755832695.2461414,-17.08984375,-38.57421875,-59.5703125,-1.46484375
1755832695.2498746,-14.6484375,-31.73828125,-58.59375,-18.06640625
1755832695.2536075,-99.609375,-34.1796875,-69.82421875,-117.67578125
1755832695.2573404,-109.86328125,-38.0859375,-70.3125,-122.0703125
1755832695.2610736,-21.97265625,-36.1328125,-58.10546875,-14.6484375
1755832695.2648065,-0.9765625,-39.0625,-59.08203125,3.41796875
1755832695.2685754,-90.8203125,-39.0625,-65.91796875,-103.02734375
1755832695.2723444,-137.20703125,-38.0859375,-64.453125,-145.01953125
1755832695.2761133,-59.5703125,-38.0859375,-53.7109375,-38.0859375
1755832695.2798822,-15.13671875,-48.33984375,-49.8046875,14.6484375
1755832695.283651,-80.078125,-46.38671875,-47.8515625,-79.1015625
1755832695.28742,-136.23046875,-40.0390625,-39.55078125,-136.71875
1755832695.291189,-85.9375,-48.33984375,-33.69140625,-66.40625
1755832695.294958,-5.37109375,-48.33984375,-27.34375,27.83203125
1755832695.2987268,-37.109375,-41.50390625,-28.3203125,-30.2734375
1755832695.3024957,-118.1640625,-34.1796875,-34.66796875,-138.18359375
1755832695.3062646,-91.30859375,-30.2734375,-30.76171875,-77.1484375
1755832695.3100336,-0.9765625,-29.296875,-29.78515625,23.92578125
1755832695.313902,-5.859375,-31.25,-37.109375,-8.30078125
1755832695.3177705,-101.07421875,-36.62109375,-43.9453125,-112.3046875
1755832695.321639,-111.328125,-30.76171875,-38.57421875,-103.02734375
1755832695.3255076,-20.5078125,-22.4609375,-22.94921875,14.16015625
1755832695.329376,5.37109375,-31.73828125,-18.06640625,26.3671875
1755832695.3332446,-83.49609375,-37.109375,-22.4609375,-84.47265625
1755832695.3371131,-124.51171875,-44.43359375,-28.3203125,-122.55859375
1755832695.3409815,-56.15234375,-50.78125,-30.76171875,-34.66796875
1755832695.34485,-13.671875,-40.0390625,-25.87890625,7.32421875
1755832695.3487186,-67.87109375,-33.203125,-25.87890625,-74.70703125
1755832695.352587,-134.27734375,-32.71484375,-33.203125,-137.6953125
1755832695.3564556,-84.47265625,-37.109375,-39.0625,-72.265625
1755832695.3624194,-15.13671875,-42.96875,-35.64453125,10.25390625
1755832695.3683834,-47.8515625,-38.0859375,-32.2265625,-34.1796875
1755832695.3743472,-120.60546875,-39.0625,-34.1796875,-134.765625
1755832695.3803113,-112.79296875,-45.41015625,-33.69140625,-114.2578125
1755832695.386275,-23.92578125,-42.48046875,-25.390625,-0.9765625
1755832695.392239,-23.92578125,-40.52734375,-23.4375,-5.859375
1755832695.398203,-103.515625,-41.9921875,-30.76171875,-105.95703125
1755832695.4041667,-123.046875,-42.48046875,-33.203125,-120.60546875
1755832695.4101307,-50.78125,-41.015625,-32.2265625,-35.64453125
1755832695.4160943,-4.39453125,-44.43359375,-33.69140625,4.39453125
1755832695.4220586,-82.51953125,-46.38671875,-44.43359375,-85.9375
1755832695.4280224,-129.39453125,-42.48046875,-46.875,-139.6484375
1755832695.4305222,-38.0859375,-39.0625,-40.0390625,-39.55078125
1755832695.433022,28.3203125,-33.203125,-34.66796875,35.64453125
1755832695.4355216,-34.66796875,-31.73828125,-36.1328125,-51.26953125
1755832695.4380214,-112.3046875,-38.0859375,-33.203125,-141.11328125
1755832695.4405212,-76.171875,-36.62109375,-20.5078125,-79.58984375
1755832695.4430208,7.32421875,-38.0859375,-13.671875,22.94921875
1755832695.4455206,-17.578125,-39.55078125,-18.5546875,-22.94921875
1755832695.4480205,-115.72265625,-39.0625,-24.4140625,-140.13671875
1755832695.4505205,-120.1171875,-37.59765625,-21.484375,-118.65234375
1755832695.45302,-31.73828125,-36.1328125,-19.53125,-7.8125
1755832695.4555197,-24.90234375,-39.0625,-21.484375,-11.23046875
1755832695.4580195,-118.1640625,-37.59765625,-23.92578125,-128.90625
1755832695.4619298,-140.625,-34.66796875,-23.92578125,-148.4375
1755832695.4658403,-49.31640625,-34.1796875,-21.97265625,-39.55078125
1755832695.4697506,0.9765625,-29.296875,-20.01953125,5.859375
1755832695.473661,-76.171875,-23.4375,-22.94921875,-82.51953125
1755832695.4775715,-133.7890625,-28.80859375,-27.83203125,-145.99609375
1755832695.4814818,-54.6875,-39.0625,-27.34375,-41.50390625
1755832695.485392,8.7890625,-34.66796875,-25.390625,33.203125
1755832695.4893026,-52.734375,-32.2265625,-32.2265625,-63.4765625
1755832695.493213,-117.1875,-36.1328125,-41.015625,-137.6953125
1755832695.4971232,-82.03125,-32.71484375,-42.48046875,-70.80078125
1755832695.5010338,-6.8359375,-30.2734375,-34.1796875,12.20703125
1755832695.504944,-22.4609375,-37.109375,-31.73828125,-33.203125
1755832695.5087018,-110.3515625,-38.57421875,-44.921875,-125.48828125
1755832695.5124598,-108.3984375,-30.2734375,-49.8046875,-104.4921875
1755832695.5162177,-16.6015625,-32.2265625,-44.921875,0.9765625
1755832695.5199752,1.953125,-35.64453125,-39.0625,12.20703125
1755832695.5237331,-77.1484375,-32.2265625,-32.71484375,-79.1015625
1755832695.5274909,-110.83984375,-38.0859375,-31.25,-105.95703125
1755832695.5312486,-35.15625,-41.9921875,-33.203125,-20.5078125
1755832695.5350063,-0.9765625,-40.52734375,-31.25,22.4609375
1755832695.5387642,-71.2890625,-43.45703125,-26.3671875,-56.640625
1755832695.542522,-124.51171875,-43.45703125,-25.390625,-120.60546875
1755832695.54628,-84.47265625,-41.50390625,-23.4375,-64.94140625
1755832695.5500376,-2.9296875,-36.1328125,-15.625,19.53125
1755832695.5574667,-39.55078125,-33.203125,-16.11328125,-31.73828125
1755832695.564896,-127.9296875,-39.55078125,-24.4140625,-128.90625
1755832695.5723252,-92.7734375,-41.9921875,-25.390625,-84.9609375
1755832695.5797544,-8.7890625,-41.50390625,-22.94921875,15.625
1755832695.5871837,-23.92578125,-38.0859375,-22.4609375,-10.25390625
1755832695.5946126,-113.76953125,-40.52734375,-27.83203125,-112.3046875
1755832695.6020415,-123.046875,-48.828125,-33.69140625,-112.79296875
1755832695.6094708,-30.76171875,-44.921875,-30.76171875,-9.765625
1755832695.6169,3.41796875,-41.9921875,-27.34375,18.06640625
1755832695.624329,-85.44921875,-50.29296875,-37.59765625,-91.796875
1755832695.6317585,-138.671875,-43.9453125,-40.0390625,-144.53125
1755832695.6391876,-57.6171875,-37.109375,-23.92578125,-34.1796875
1755832695.6395447,6.34765625,-37.59765625,-20.5078125,35.15625
1755832695.639902,-70.3125,-35.15625,-27.34375,-54.6875
1755832695.6402593,-126.953125,-32.71484375,-26.3671875,-132.32421875
1755832695.6406164,-65.91796875,-31.25,-29.296875,-64.453125
1755832695.6409738,3.41796875,-30.76171875,-30.76171875,21.484375
1755832695.641331,-22.4609375,-32.2265625,-27.34375,-30.2734375
1755832695.641688,-110.3515625,-34.66796875,-32.71484375,-125.0
1755832695.6420455,-100.09765625,-38.57421875,-37.59765625,-97.65625
1755832695.6424026,-8.7890625,-34.66796875,-31.25,2.9296875
1755832695.6427598,-21.97265625,-27.34375,-29.296875,-7.32421875
1755832695.6431172,-113.28125,-29.78515625,-34.1796875,-107.91015625
1755832695.6434743,-114.74609375,-39.55078125,-33.69140625,-109.375
1755832695.6494513,-29.296875,-44.921875,-30.76171875,-8.30078125
1755832695.6554282,5.37109375,-28.3203125,-25.87890625,25.390625
1755832695.661405,-68.359375,-20.5078125,-26.85546875,-70.3125
1755832695.667382,-116.2109375,-30.2734375,-37.59765625,-120.60546875
1755832695.673359,-48.828125,-35.64453125,-42.96875,-38.0859375
1755832695.679336,10.7421875,-36.62109375,-41.015625,25.87890625
1755832695.685313,-49.8046875,-33.69140625,-39.55078125,-43.9453125
1755832695.69129,-111.328125,-30.76171875,-42.96875,-120.60546875
1755832695.6972668,-72.265625,-33.203125,-41.50390625,-56.15234375
1755832695.7032435,-9.27734375,-31.73828125,-34.1796875,21.97265625
1755832695.7092206,-27.34375,-34.1796875,-34.1796875,-19.53125
1755832695.7151976,-113.28125,-36.62109375,-36.62109375,-110.83984375
1755832695.7176275,-111.328125,-32.2265625,-35.15625,-102.5390625
1755832695.7200575,-21.484375,-37.109375,-38.0859375,-5.37109375
1755832695.7224874,-3.90625,-35.15625,-38.57421875,5.859375
1755832695.7249174,-103.02734375,-29.296875,-41.9921875,-104.00390625
1755832695.7273474,-135.7421875,-38.57421875,-45.8984375,-131.34765625
1755832695.729777,-38.0859375,-36.62109375,-35.64453125,-25.87890625
1755832695.7322073,9.765625,-27.83203125,-29.78515625,20.5078125
1755832695.7346373,-67.87109375,-30.76171875,-38.57421875,-73.73046875
1755832695.7370672,-136.71875,-36.1328125,-41.50390625,-143.06640625
1755832695.7394972,-71.77734375,-34.66796875,-32.71484375,-55.17578125
1755832695.7419271,2.9296875,-32.2265625,-25.87890625,30.2734375
1755832695.744357,-47.36328125,-32.2265625,-28.3203125,-44.921875
1755832695.7468705,-125.0,-30.2734375,-35.64453125,-141.6015625
1755832695.749384,-94.7265625,-31.73828125,-30.76171875,-85.9375
1755832695.751897,5.859375,-26.3671875,-18.5546875,33.69140625
1755832695.754411,-16.11328125,-25.390625,-24.90234375,-1.46484375
1755832695.7569244,-117.67578125,-30.76171875,-33.69140625,-116.69921875
1755832695.7594378,-109.375,-30.2734375,-30.2734375,-94.7265625
1755832695.7619512,-25.87890625,-35.15625,-26.85546875,0.9765625
1755832695.7644646,-13.671875,-36.62109375,-33.203125,7.8125
1755832695.7669785,-105.46875,-32.2265625,-39.0625,-97.65625
1755832695.7694917,-135.25390625,-34.1796875,-38.57421875,-131.34765625
1755832695.772005,-34.66796875,-31.73828125,-30.2734375,-23.92578125
1755832695.7745185,2.44140625,-28.80859375,-25.390625,20.99609375
1755832695.7795222,-82.03125,-28.80859375,-33.203125,-90.33203125
1755832695.7845256,-142.08984375,-31.25,-36.1328125,-147.94921875
1755832695.789529,-83.49609375,-33.203125,-31.25,-58.59375
1755832695.7945328,-8.7890625,-36.62109375,-26.3671875,8.30078125
1755832695.7995365,-54.6875,-35.64453125,-30.76171875,-54.19921875
1755832695.8045402,-114.74609375,-31.25,-33.69140625,-129.8828125
1755832695.8095436,-90.8203125,-35.64453125,-33.69140625,-93.26171875
1755832695.8145473,-18.06640625,-34.1796875,-30.76171875,-10.7421875
1755832695.8195508,-25.87890625,-22.4609375,-26.3671875,-29.78515625
1755832695.8245544,-112.79296875,-28.80859375,-31.73828125,-128.90625
1755832695.829558,-126.46484375,-39.0625,-34.1796875,-126.46484375
1755832695.8345616,-43.45703125,-40.0390625,-29.78515625,-33.69140625
1755832695.8395443,-9.27734375,-40.0390625,-29.296875,-21.484375
1755832695.8445275,-90.8203125,-35.15625,-35.64453125,-103.02734375
1755832695.8495104,-133.7890625,-31.73828125,-38.0859375,-138.18359375
1755832695.8544934,-54.19921875,-26.85546875,-29.78515625,-44.921875
1755832695.8594763,2.9296875,-28.80859375,-28.80859375,10.25390625
1755832695.8644595,-67.3828125,-32.71484375,-38.57421875,-71.77734375
1755832695.8694425,-140.625,-36.1328125,-42.48046875,-143.06640625
1755832695.8744254,-86.42578125,-37.59765625,-34.66796875,-83.0078125
1755832695.8794084,-0.9765625,-37.59765625,-29.296875,15.625
1755832695.8843913,-33.203125,-39.0625,-32.71484375,-29.78515625
1755832695.8893745,-129.39453125,-39.0625,-37.109375,-144.04296875
1755832695.8943572,-110.3515625,-39.55078125,-34.1796875,-108.3984375
1755832695.8968723,-15.13671875,-42.48046875,-29.296875,3.41796875
1755832695.8993878,-24.90234375,-39.55078125,-33.203125,-15.13671875
1755832695.9019032,-117.1875,-29.296875,-42.96875,-119.62890625
1755832695.9044185,-132.8125,-26.3671875,-43.9453125,-130.37109375
1755832695.9069338,-36.62109375,-28.3203125,-34.1796875,-21.97265625
1755832695.909449,4.39453125,-28.3203125,-32.71484375,18.5546875
1755832695.9119642,-87.890625,-27.83203125,-41.9921875,-93.75
1755832695.9144795,-151.85546875,-23.4375,-48.828125,-157.2265625
1755832695.9169948,-63.96484375,-25.390625,-47.8515625,-52.24609375
1755832695.91951,10.7421875,-23.92578125,-40.0390625,29.296875
1755832695.9220254,-60.05859375,-22.94921875,-43.9453125,-54.6875
1755832695.9245408,-113.28125,-23.92578125,-50.29296875,-123.046875
1755832695.9283104,-52.734375,-19.04296875,-53.22265625,-46.875
1755832695.93208,6.34765625,-27.83203125,-56.15234375,26.3671875
1755832695.9358497,-16.11328125,-27.83203125,-56.15234375,-19.04296875
1755832695.939619,-77.1484375,-24.4140625,-55.17578125,-96.19140625
1755832695.9433887,-79.1015625,-29.78515625,-57.12890625,-82.51953125
1755832695.9471583,16.6015625,-27.34375,-46.38671875,16.11328125
1755832695.950928,33.203125,-20.01953125,-39.55078125,23.4375
1755832695.9546976,-65.91796875,-20.5078125,-51.7578125,-79.58984375
1755832695.958467,-80.56640625,-22.94921875,-61.03515625,-100.5859375
1755832695.9622366,2.9296875,-24.4140625,-57.12890625,-3.90625
1755832695.9660065,33.203125,-18.06640625,-45.8984375,35.64453125
1755832695.969776,-32.2265625,-9.765625,-48.828125,-49.31640625
1755832695.9735105,-93.26171875,-11.71875,-55.6640625,-110.3515625
1755832695.9772449,-32.2265625,-18.5546875,-57.12890625,-29.296875
1755832695.9809794,33.203125,-14.6484375,-58.59375,40.52734375
1755832695.984714,-33.203125,-21.484375,-62.98828125,-38.0859375
1755832695.9884484,-100.09765625,-20.99609375,-67.3828125,-121.09375
1755832695.992183,-59.5703125,-16.6015625,-65.91796875,-62.98828125
1755832695.9959176,18.06640625,-28.3203125,-55.17578125,30.76171875
1755832695.999652,13.671875,-29.78515625,-51.7578125,-0.9765625
1755832696.0033865,-76.171875,-27.83203125,-54.19921875,-96.6796875
1755832696.007121,-90.33203125,-26.85546875,-47.8515625,-93.75
1755832696.0108554,-2.44140625,-25.390625,-38.57421875,9.27734375
1755832696.01459,17.08984375,-25.87890625,-43.9453125,17.08984375
1755832696.0183816,-70.3125,-28.3203125,-51.7578125,-86.42578125
1755832696.0221732,-105.95703125,-33.69140625,-48.33984375,-110.3515625
1755832696.0259647,-21.97265625,-35.64453125,-43.45703125,-10.7421875
1755832696.0297563,26.85546875,-30.76171875,-40.0390625,34.66796875
1755832696.033548,-42.96875,-26.85546875,-35.64453125,-56.640625
1755832696.0373392,-99.12109375,-25.390625,-36.62109375,-117.1875
1755832696.0411308,-43.45703125,-27.83203125,-40.52734375,-47.8515625
1755832696.0449224,33.203125,-29.296875,-37.109375,39.55078125
1755832696.048714,-18.06640625,-31.73828125,-38.57421875,-18.5546875
1755832696.0525055,-117.67578125,-34.66796875,-48.33984375,-127.44140625
1755832696.056297,-75.1953125,-34.66796875,-45.8984375,-87.890625
1755832696.0600886,21.97265625,-34.1796875,-36.1328125,19.53125
1755832696.0650878,-5.37109375,-30.2734375,-32.2265625,-11.71875
1755832696.0700867,-95.703125,-31.73828125,-36.1328125,-116.69921875
1755832696.075086,-94.7265625,-38.0859375,-34.1796875,-96.6796875
1755832696.080085,-6.34765625,-37.59765625,-27.83203125,8.30078125
1755832696.085084,9.27734375,-38.0859375,-31.73828125,21.484375
1755832696.0900831,-70.80078125,-36.62109375,-33.69140625,-69.82421875
1755832696.0950823,-110.3515625,-38.57421875,-37.109375,-105.46875
1755832696.1000812,-41.50390625,-41.015625,-36.1328125,-20.01953125
1755832696.1050804,6.34765625,-36.62109375,-34.1796875,19.53125
1755832696.1100795,-64.453125,-31.73828125,-30.76171875,-56.15234375
1755832696.1150784,-125.9765625,-35.15625,-33.203125,-118.65234375
1755832696.1200776,-76.171875,-41.50390625,-35.64453125,-53.7109375
1755832696.1226966,-5.37109375,-37.59765625,-30.2734375,28.80859375
1755832696.125316,-32.71484375,-31.73828125,-28.80859375,-28.80859375
1755832696.127935,-105.95703125,-35.15625,-33.203125,-117.67578125
1755832696.130554,-94.23828125,-31.73828125,-35.15625,-80.078125
1755832696.1331732,-9.27734375,-32.71484375,-30.2734375,3.90625
1755832696.1357925,-3.90625,-33.203125,-27.83203125,-0.48828125
1755832696.1384113,-100.5859375,-30.76171875,-32.71484375,-94.23828125
1755832696.1410306,-125.9765625,-33.203125,-33.203125,-112.3046875
1755832696.1436496,-37.109375,-28.80859375,-23.4375,-16.11328125
1755832696.1462686,4.8828125,-28.80859375,-21.97265625,18.5546875
1755832696.148888,-66.40625,-27.34375,-23.92578125,-59.08203125
1755832696.151507,-130.37109375,-32.2265625,-22.94921875,-133.30078125
1755832696.1563184,-62.98828125,-39.0625,-19.04296875,-63.96484375
1755832696.1611302,9.765625,-33.69140625,-12.20703125,22.94921875
1755832696.1659417,-60.546875,-38.0859375,-18.06640625,-55.17578125
1755832696.1707537,-147.94921875,-46.38671875,-27.83203125,-143.5546875
1755832696.175565,-103.515625,-43.45703125,-27.83203125,-84.47265625
1755832696.1803763,-15.625,-40.52734375,-22.4609375,19.53125
1755832696.1851883,-33.203125,-41.015625,-24.90234375,-9.27734375
1755832696.1899998,-127.9296875,-41.50390625,-38.0859375,-131.8359375
1755832696.1948116,-123.53515625,-39.0625,-38.0859375,-110.83984375
1755832696.199623,-36.1328125,-39.55078125,-27.34375,-1.46484375
1755832696.2044349,-34.1796875,-47.8515625,-23.92578125,-21.484375
1755832696.2092464,-124.0234375,-50.29296875,-28.80859375,-129.39453125
1755832696.2130482,-148.92578125,-46.38671875,-27.83203125,-141.11328125
1755832696.2168498,-57.6171875,-46.875,-21.484375,-34.66796875
1755832696.2206516,-13.18359375,-49.8046875,-15.13671875,0.48828125
1755832696.2244534,-101.5625,-45.8984375,-14.16015625,-95.703125
1755832696.228255,-162.109375,-40.0390625,-23.4375,-142.578125
1755832696.2320569,-77.63671875,-44.921875,-19.04296875,-50.78125
1755832696.235859,0.0,-51.26953125,-9.765625,25.390625
1755832696.2396605,-69.82421875,-54.19921875,-16.6015625,-57.12890625
1755832696.243462,-142.578125,-55.6640625,-19.04296875,-138.671875
1755832696.247264,-93.26171875,-56.640625,-17.578125,-65.4296875
1755832696.2510655,-36.62109375,-55.6640625,-22.4609375,9.27734375
1755832696.2548673,-62.5,-55.6640625,-24.90234375,-45.8984375
1755832696.258631,-121.09375,-60.546875,-22.94921875,-127.9296875
1755832696.2623944,-115.234375,-51.26953125,-20.5078125,-104.4921875
1755832696.266158,-38.0859375,-39.55078125,-20.99609375,-10.7421875
1755832696.2699218,-16.11328125,-41.50390625,-19.53125,3.90625
1755832696.2736857,-84.47265625,-42.48046875,-21.484375,-87.890625
1755832696.2774491,-113.76953125,-37.59765625,-28.3203125,-117.67578125
1755832696.2812126,-45.8984375,-42.96875,-34.1796875,-40.0390625
1755832696.2849762,-8.7890625,-46.875,-29.78515625,1.953125
1755832696.28874,-69.82421875,-41.50390625,-26.3671875,-63.96484375
1755832696.2925034,-126.46484375,-42.48046875,-32.71484375,-116.69921875
1755832696.296267,-87.40234375,-42.96875,-37.59765625,-59.08203125
1755832696.3000307,-7.32421875,-45.41015625,-32.2265625,10.7421875
1755832696.3048732,-43.45703125,-42.96875,-31.25,-45.41015625
1755832696.3097155,-124.0234375,-34.1796875,-29.78515625,-126.953125
1755832696.314558,-90.33203125,-36.62109375,-26.3671875,-79.58984375
1755832696.3194003,-1.46484375,-34.66796875,-25.87890625,12.20703125
1755832696.3242428,-8.30078125,-27.83203125,-26.85546875,-10.25390625
1755832696.3290854,-101.5625,-37.59765625,-33.203125,-109.86328125
1755832696.3339276,-119.140625,-43.45703125,-36.62109375,-112.3046875
1755832696.3387702,-25.87890625,-28.80859375,-28.80859375,-13.671875
1755832696.3436124,-0.48828125,-28.3203125,-23.4375,11.23046875
1755832696.348455,-80.078125,-34.66796875,-32.2265625,-83.0078125
1755832696.3532972,-115.72265625,-34.1796875,-34.66796875,-125.9765625
1755832696.3581398,-45.8984375,-36.1328125,-32.71484375,-37.59765625
1755832696.3620138,9.765625,-35.64453125,-29.78515625,14.6484375
1755832696.365888,-56.15234375,-33.69140625,-30.2734375,-68.84765625
1755832696.3697624,-127.44140625,-33.69140625,-34.1796875,-140.13671875
1755832696.3736365,-77.63671875,-32.2265625,-33.203125,-60.05859375
1755832696.3775103,1.46484375,-30.76171875,-27.83203125,33.69140625
1755832696.3813848,-41.015625,-33.69140625,-28.80859375,-27.34375
1755832696.3852592,-134.765625,-38.0859375,-31.73828125,-135.25390625
1755832696.3891332,-106.93359375,-40.0390625,-28.80859375,-93.26171875
1755832696.3930073,-21.484375,-41.015625,-31.25,13.671875
1755832696.3968816,-43.9453125,-40.52734375,-37.59765625,-25.87890625
1755832696.400756,-132.32421875,-43.9453125,-40.0390625,-135.7421875
1755832696.40463,-139.6484375,-55.17578125,-42.96875,-126.46484375
1755832696.4084952,-61.03515625,-54.19921875,-37.109375,-23.92578125
1755832696.412361,-26.85546875,-45.8984375,-27.34375,-2.9296875
1755832696.416226,-101.07421875,-42.96875,-33.203125,-98.6328125
1755832696.4200912,-153.80859375,-39.55078125,-41.015625,-145.99609375
1755832696.4239564,-86.9140625,-40.0390625,-35.64453125,-64.94140625
1755832696.4278216,-17.578125,-32.71484375,-20.5078125,9.27734375
1755832696.431687,-64.94140625,-29.78515625,-19.53125,-59.5703125
1755832696.4355524,-143.5546875,-33.69140625,-33.69140625,-145.01953125
1755832696.4394176,-102.05078125,-31.73828125,-34.66796875,-78.125
1755832696.443283,-10.7421875,-29.78515625,-25.87890625,12.6953125
1755832696.4471483,-35.64453125,-29.296875,-22.4609375,-30.2734375
1755832696.4510136,-126.953125,-31.25,-26.3671875,-123.046875
1755832696.4545305,-127.9296875,-40.52734375,-34.1796875,-104.4921875
1755832696.4580472,-36.1328125,-44.43359375,-30.2734375,0.9765625
1755832696.461564,-21.97265625,-35.64453125,-20.99609375,0.9765625
1755832696.465081,-112.3046875,-32.71484375,-23.92578125,-104.98046875
1755832696.4685977,-124.51171875,-36.1328125,-23.4375,-111.81640625
1755832696.4721146,-32.2265625,-35.64453125,-17.08984375,-10.25390625
1755832696.4756317,-2.9296875,-35.64453125,-17.578125,24.90234375
1755832696.479148,-83.984375,-38.0859375,-29.296875,-75.68359375
1755832696.482665,-131.8359375,-32.71484375,-33.203125,-135.7421875
1755832696.486182,-69.3359375,-31.25,-26.3671875,-44.43359375
1755832696.4896986,-8.30078125,-35.15625,-24.90234375,37.59765625
1755832696.4932156,-58.59375,-40.52734375,-29.78515625,-32.2265625
1755832696.4969487,-131.8359375,-43.45703125,-31.73828125,-130.859375
1755832696.500682,-89.84375,-39.0625,-27.34375,-73.73046875
1755832696.504415,-12.6953125,-31.25,-20.5078125,26.85546875
1755832696.5081482,-37.109375,-34.1796875,-23.92578125,-15.13671875
1755832696.5118814,-116.2109375,-39.0625,-36.1328125,-116.69921875
1755832696.5156145,-108.3984375,-32.2265625,-40.0390625,-90.8203125
1755832696.5193477,-25.390625,-27.83203125,-40.52734375,10.25390625
1755832696.5230808,-22.94921875,-35.64453125,-37.59765625,4.8828125
1755832696.526814,-108.3984375,-37.59765625,-37.59765625,-104.4921875
1755832696.5305471,-137.20703125,-35.64453125,-35.15625,-136.71875
1755832696.5342803,-55.6640625,-38.0859375,-32.2265625,-33.69140625
1755832696.5380137,-10.25390625,-39.55078125,-36.1328125,11.71875
1755832696.5432873,-82.51953125,-35.15625,-41.015625,-85.9375
1755832696.5485609,-140.13671875,-31.73828125,-40.52734375,-146.97265625
1755832696.553835,-83.984375,-33.69140625,-33.69140625,-62.01171875
1755832696.5591085,-9.765625,-39.55078125,-30.2734375,20.99609375
1755832696.564382,-46.38671875,-39.0625,-27.83203125,-38.0859375
1755832696.569656,-111.328125,-37.109375,-30.76171875,-117.1875
1755832696.5749297,-90.8203125,-38.0859375,-32.71484375,-72.265625
1755832696.5802033,-23.4375,-35.64453125,-27.34375,12.20703125
1755832696.5854769,-24.90234375,-29.78515625,-23.92578125,-4.8828125
1755832696.5907507,-107.91015625,-32.2265625,-27.83203125,-100.5859375
1755832696.5960245,-119.62890625,-38.57421875,-34.1796875,-106.4453125
1755832696.601298,-38.57421875,-34.66796875,-31.73828125,-13.18359375
1755832696.6036942,-13.18359375,-31.25,-27.34375,4.39453125
1755832696.6060903,-90.8203125,-35.64453125,-35.64453125,-88.37890625
1755832696.6084864,-129.8828125,-38.57421875,-41.50390625,-122.55859375
1755832696.6108823,-52.24609375,-35.15625,-33.69140625,-28.3203125
1755832696.6132786,2.9296875,-38.0859375,-30.2734375,29.78515625
1755832696.6156747,-57.6171875,-38.0859375,-33.69140625,-52.734375
1755832696.6180708,-123.53515625,-34.66796875,-36.62109375,-128.90625
1755832696.620467,-81.54296875,-34.66796875,-36.1328125,-65.91796875
1755832696.622863,-6.34765625,-30.76171875,-26.85546875,16.6015625
1755832696.6252592,-40.0390625,-29.78515625,-26.85546875,-35.64453125
1755832696.6276553,-136.23046875,-30.76171875,-35.64453125,-135.7421875
1755832696.6300514,-114.74609375,-32.2265625,-35.64453125,-104.98046875
1755832696.633921,-18.5546875,-32.71484375,-29.78515625,0.0
1755832696.6377904,-8.30078125,-32.71484375,-25.390625,7.32421875
1755832696.64166,-101.07421875,-35.64453125,-31.73828125,-101.5625
1755832696.6455295,-135.7421875,-29.78515625,-33.69140625,-130.859375
1755832696.649399,-40.0390625,-27.83203125,-24.4140625,-20.5078125
1755832696.6532686,-7.8125,-32.71484375,-22.94921875,14.16015625
1755832696.657138,-93.26171875,-27.83203125,-30.76171875,-85.44921875
1755832696.6610076,-142.578125,-26.3671875,-29.78515625,-126.953125
1755832696.6648772,-65.91796875,-35.64453125,-25.87890625,-21.97265625
1755832696.6687467,4.8828125,-37.109375,-27.34375,45.8984375
1755832696.6726162,-68.359375,-32.71484375,-27.83203125,-49.31640625
1755832696.6764858,-148.92578125,-32.71484375,-34.1796875,-138.671875
1755832696.6801057,-100.09765625,-41.50390625,-38.57421875,-81.0546875
1755832696.6837258,-17.578125,-44.921875,-27.83203125,13.18359375
1755832696.687346,-46.875,-38.57421875,-26.3671875,-24.4140625
1755832696.690966,-125.9765625,-37.109375,-31.25,-123.53515625
1755832696.6945858,-107.91015625,-40.0390625,-30.2734375,-94.7265625
1755832696.698206,-33.203125,-38.0859375,-29.78515625,3.41796875
1755832696.701826,-35.64453125,-35.64453125,-31.25,-21.484375
1755832696.705446,-110.3515625,-41.015625,-37.109375,-120.1171875
1755832696.709066,-115.72265625,-46.38671875,-35.15625,-110.3515625
1755832696.712686,-39.55078125,-45.8984375,-30.2734375,-23.4375
1755832696.7163062,-9.27734375,-37.59765625,-30.2734375,-4.8828125
1755832696.719926,-80.078125,-39.0625,-38.0859375,-88.37890625
1755832696.724928,-143.06640625,-49.31640625,-44.921875,-152.83203125
1755832696.7299297,-75.68359375,-46.875,-37.109375,-63.4765625
1755832696.7349317,-5.37109375,-36.62109375,-30.2734375,22.94921875
1755832696.7399333,-56.15234375,-31.73828125,-32.71484375,-53.22265625
1755832696.744935,-131.34765625,-34.66796875,-33.69140625,-130.37109375
1755832696.7499368,-92.7734375,-36.62109375,-29.78515625,-72.75390625
1755832696.7549386,-11.23046875,-35.15625,-21.97265625,11.23046875
1755832696.7599404,-29.78515625,-36.62109375,-21.97265625,-14.16015625
1755832696.7649422,-110.3515625,-45.8984375,-31.73828125,-98.14453125
1755832696.769944,-118.65234375,-46.38671875,-39.0625,-97.16796875
1755832696.7749455,-35.64453125,-42.48046875,-35.15625,-9.765625
1755832696.7799475,-8.7890625,-39.55078125,-27.83203125,3.90625
1755832696.7837098,-92.7734375,-38.57421875,-30.76171875,-93.75
1755832696.787472,-128.90625,-40.0390625,-34.66796875,-121.58203125
1755832696.7912345,-46.38671875,-43.9453125,-28.3203125,-22.94921875
1755832696.7949965,-3.90625,-41.50390625,-24.90234375,25.87890625
1755832696.7987587,-70.3125,-39.0625,-24.90234375,-63.4765625
1755832696.8025212,-130.859375,-41.015625,-29.78515625,-125.0
1755832696.8062837,-81.0546875,-41.50390625,-28.80859375,-44.43359375
1755832696.8100457,-22.94921875,-48.828125,-24.90234375,26.3671875
1755832696.813808,-66.89453125,-41.9921875,-26.85546875,-37.109375
1755832696.8175702,-130.37109375,-35.15625,-26.3671875,-125.9765625
1755832696.8213325,-101.07421875,-41.50390625,-26.85546875,-83.984375
1755832696.8250947,-6.8359375,-43.45703125,-24.4140625,33.69140625
1755832696.8276527,-14.16015625,-41.50390625,-26.3671875,12.6953125
1755832696.8302107,-105.95703125,-34.1796875,-29.296875,-102.05078125
1755832696.8327684,-116.2109375,-33.203125,-29.296875,-108.88671875
1755832696.8353264,-25.87890625,-33.69140625,-24.90234375,-3.41796875
1755832696.8378844,0.9765625,-27.34375,-20.99609375,23.92578125
1755832696.8404422,-98.6328125,-28.80859375,-28.80859375,-92.7734375
1755832696.8430002,-136.71875,-41.015625,-33.69140625,-130.859375
1755832696.8455582,-52.734375,-46.38671875,-28.80859375,-30.2734375
1755832696.8481162,-0.48828125,-42.48046875,-22.4609375,20.01953125
1755832696.8506742,-61.5234375,-31.25,-24.90234375,-61.5234375
1755832696.853232,-115.234375,-25.87890625,-36.62109375,-126.953125
1755832696.85579,-73.73046875,-32.2265625,-41.015625,-53.7109375
1755832696.8608005,-7.32421875,-36.62109375,-31.25,20.5078125
1755832696.8658106,-30.76171875,-39.0625,-25.390625,-25.87890625
1755832696.870821,-120.60546875,-41.50390625,-32.71484375,-121.09375
1755832696.8758316,-105.95703125,-35.15625,-36.62109375,-90.8203125
1755832696.880842,-11.71875,-31.73828125,-26.3671875,11.71875
1755832696.8858523,-20.5078125,-36.62109375,-17.08984375,-4.8828125
1755832696.8908627,-109.86328125,-44.921875,-27.34375,-109.86328125
1755832696.895873,-127.9296875,-50.29296875,-37.59765625,-119.62890625
1755832696.9008837,-53.7109375,-51.7578125,-39.0625,-32.71484375
1755832696.905894,-14.16015625,-45.41015625,-34.66796875,6.8359375
1755832696.9109044,-83.49609375,-44.43359375,-36.62109375,-79.1015625
1755832696.9159148,-132.8125,-48.828125,-38.0859375,-131.34765625
1755832696.9195454,-58.59375,-40.52734375,-29.78515625,-39.55078125
1755832696.9231763,20.01953125,-29.78515625,-19.53125,34.1796875
1755832696.926807,-48.828125,-31.73828125,-21.484375,-45.8984375
1755832696.9304376,-122.55859375,-33.203125,-29.296875,-125.9765625
1755832696.9340682,-71.2890625,-36.1328125,-26.85546875,-62.01171875
1755832696.9376988,8.30078125,-39.55078125,-20.5078125,25.390625
1755832696.9413297,-30.2734375,-36.1328125,-26.3671875,-17.08984375
1755832696.9449604,-126.46484375,-34.66796875,-32.2265625,-125.0
1755832696.948591,-107.421875,-32.71484375,-25.390625,-99.609375
1755832696.952222,-14.16015625,-33.69140625,-22.94921875,15.625
1755832696.9558525,-7.32421875,-31.73828125,-29.296875,12.6953125
1755832696.9594831,-108.3984375,-34.66796875,-37.109375,-106.4453125
1755832696.9632776,-131.34765625,-36.62109375,-42.48046875,-124.51171875
1755832696.967072,-47.36328125,-38.0859375,-38.57421875,-37.59765625
1755832696.9708662,-24.4140625,-44.921875,-32.71484375,-10.7421875
1755832696.9746606,-112.3046875,-43.9453125,-36.1328125,-97.16796875
1755832696.978455,-150.390625,-38.57421875,-36.62109375,-147.94921875
1755832696.9822493,-79.58984375,-40.0390625,-34.1796875,-62.98828125
1755832696.9860437,-21.97265625,-45.8984375,-31.73828125,5.859375
1755832696.989838,-65.91796875,-41.50390625,-30.76171875,-55.6640625
1755832696.9936326,-135.7421875,-31.25,-35.15625,-133.30078125
1755832696.997427,-96.19140625,-33.203125,-37.59765625,-71.77734375
1755832697.0012212,-25.87890625,-36.1328125,-36.62109375,17.578125
1755832697.0050156,-69.3359375,-36.1328125,-35.15625,-36.62109375
1755832697.0087645,-149.4140625,-36.1328125,-38.0859375,-145.01953125
1755832697.0125134,-145.01953125,-41.9921875,-46.875,-134.765625
1755832697.0162623,-63.96484375,-38.0859375,-43.45703125,-37.109375
1755832697.0200112,-45.41015625,-36.1328125,-34.66796875,-31.73828125
1755832697.02376,-127.44140625,-41.015625,-36.62109375,-125.9765625
1755832697.0275087,-155.2734375,-37.109375,-38.57421875,-153.3203125
1755832697.0312576,-81.54296875,-29.78515625,-31.73828125,-62.5
1755832697.0350063,-31.73828125,-17.08984375,-25.390625,-9.27734375
1755832697.0387554,-93.26171875,-19.53125,-28.3203125,-82.51953125
1755832697.0425043,-149.90234375,-33.203125,-35.15625,-138.671875
1755832697.0462532,-92.28515625,-37.59765625,-34.66796875,-75.1953125
1755832697.050002,-15.625,-34.66796875,-25.87890625,-2.44140625
1755832697.0538144,-58.10546875,-26.3671875,-26.3671875,-54.19921875
1755832697.0576267,-142.578125,-20.01953125,-37.109375,-142.08984375
1755832697.0614388,-117.1875,-22.94921875,-38.0859375,-106.93359375
1755832697.065251,-28.80859375,-19.04296875,-25.87890625,-4.39453125
1755832697.0690634,-33.69140625,-19.04296875,-22.4609375,-23.92578125
1755832697.0728755,-114.74609375,-25.390625,-32.2265625,-119.62890625
1755832697.0766878,-124.0234375,-21.484375,-37.109375,-115.72265625
1755832697.0805,-47.36328125,-22.94921875,-33.69140625,-28.3203125
1755832697.0843124,-15.625,-28.3203125,-35.64453125,-9.765625
1755832697.0881248,-104.00390625,-36.1328125,-47.8515625,-106.93359375
1755832697.0919368,-159.66796875,-39.55078125,-53.7109375,-147.94921875
1755832697.0957491,-76.171875,-38.57421875,-41.50390625,-54.6875
1755832697.0995605,-13.18359375,-35.15625,-33.203125,3.41796875
1755832697.1033716,-92.28515625,-36.62109375,-41.015625,-86.42578125
1755832697.107183,-160.64453125,-37.109375,-43.9453125,-161.62109375
1755832697.1109943,-89.35546875,-29.78515625,-32.71484375,-72.265625
1755832697.1148057,-17.578125,-32.2265625,-25.87890625,3.41796875
1755832697.118617,-64.453125,-35.64453125,-26.85546875,-64.453125
1755832697.1224282,-141.11328125,-36.1328125,-25.87890625,-146.97265625
1755832697.1262395,-113.76953125,-37.59765625,-22.94921875,-104.00390625
1755832697.130051,-19.04296875,-32.2265625,-23.4375,13.18359375
1755832697.133862,-28.3203125,-27.34375,-24.4140625,-11.71875
1755832697.1376734,-114.2578125,-27.83203125,-29.78515625,-124.51171875
1755832697.1414847,-132.8125,-32.2265625,-32.71484375,-125.0
1755832697.145099,-48.828125,-32.71484375,-24.4140625,-15.625
1755832697.1487134,-15.13671875,-34.1796875,-22.94921875,4.39453125
1755832697.1523275,-94.7265625,-40.0390625,-27.83203125,-94.23828125
1755832697.1559415,-136.71875,-46.875,-31.25,-136.71875
1755832697.1595562,-66.89453125,-46.875,-33.203125,-49.8046875
1755832697.1631703,-12.20703125,-38.0859375,-28.3203125,7.32421875
1755832697.1667843,-70.3125,-31.25,-24.4140625,-69.3359375
1755832697.170399,-125.0,-29.78515625,-29.296875,-126.953125
1755832697.1740131,-83.984375,-34.66796875,-32.71484375,-67.87109375
1755832697.177627,-21.484375,-29.296875,-27.34375,0.0
1755832697.1812418,-39.55078125,-24.4140625,-21.97265625,-29.296875
1755832697.184856,-123.53515625,-27.83203125,-25.390625,-115.72265625
1755832697.1886275,-122.55859375,-33.203125,-33.69140625,-104.00390625
1755832697.1923995,-31.25,-37.59765625,-27.34375,-4.39453125
1755832697.1961713,-10.7421875,-30.76171875,-20.5078125,2.9296875
1755832697.199943,-96.19140625,-28.80859375,-19.04296875,-102.05078125
1755832697.2037148,-127.44140625,-33.203125,-22.94921875,-117.1875
1755832697.2074866,-42.48046875,-30.2734375,-23.92578125,-6.8359375
1755832697.2112586,0.0,-27.83203125,-19.53125,30.76171875
1755832697.2150304,-59.08203125,-32.2265625,-24.4140625,-54.6875
1755832697.2188022,-122.0703125,-32.2265625,-33.69140625,-119.140625
1755832697.222574,-66.89453125,-31.25,-28.80859375,-41.9921875
1755832697.2263458,-11.71875,-38.0859375,-20.99609375,23.92578125
1755832697.2301176,-79.1015625,-39.55078125,-22.4609375,-63.96484375
1755832697.235113,-145.5078125,-37.109375,-25.87890625,-141.6015625
1755832697.240108,-88.8671875,-37.59765625,-22.94921875,-75.1953125
1755832697.2451031,-7.32421875,-37.59765625,-19.53125,12.6953125
1755832697.2500985,-39.55078125,-36.62109375,-24.90234375,-36.62109375
1755832697.2550936,-131.8359375,-42.96875,-29.78515625,-139.6484375
1755832697.260089,-125.48828125,-47.8515625,-29.296875,-110.83984375
1755832697.265084,-22.4609375,-45.41015625,-27.83203125,4.8828125
1755832697.2700791,-25.87890625,-42.48046875,-30.76171875,-10.7421875
1755832697.2750745,-122.55859375,-43.9453125,-27.83203125,-126.953125
1755832697.2800696,-131.8359375,-44.921875,-21.484375,-129.8828125
1755832697.285065,-57.6171875,-46.875,-21.484375,-21.97265625
1755832697.29006,-13.671875,-38.0859375,-19.53125,14.16015625
1755832697.2938724,-93.26171875,-40.52734375,-22.4609375,-83.0078125
1755832697.297685,-156.73828125,-51.26953125,-28.3203125,-141.11328125
1755832697.3014972,-83.984375,-47.8515625,-26.85546875,-66.89453125
1755832697.3053095,-13.18359375,-41.9921875,-20.5078125,9.27734375
1755832697.309122,-65.4296875,-42.96875,-18.5546875,-41.9921875
1755832697.3129344,-132.8125,-44.921875,-20.5078125,-123.046875
1755832697.3167467,-86.9140625,-41.9921875,-21.97265625,-74.70703125
1755832697.3205593,-24.4140625,-45.8984375,-17.08984375,8.30078125
1755832697.3243716,-46.875,-49.8046875,-9.765625,-25.390625
1755832697.328184,-117.1875,-50.78125,-7.8125,-113.76953125
1755832697.3319964,-122.55859375,-54.19921875,-14.6484375,-104.4921875
1755832697.3358088,-55.6640625,-54.19921875,-19.53125,-25.87890625
1755832697.3396506,-27.34375,-51.7578125,-9.27734375,-3.90625
1755832697.3434925,-101.07421875,-55.17578125,-9.765625,-89.84375
1755832697.3473344,-155.76171875,-58.10546875,-18.06640625,-143.06640625
1755832697.351176,-95.703125,-58.59375,-19.04296875,-64.94140625
1755832697.355018,-35.15625,-61.03515625,-19.04296875,-0.9765625
1755832697.3588598,-91.796875,-60.546875,-17.08984375,-72.265625
1755832697.3627017,-163.0859375,-55.17578125,-15.625,-158.203125
1755832697.3665435,-112.79296875,-54.19921875,-18.06640625,-96.19140625
1755832697.3703852,-40.0390625,-56.640625,-12.20703125,-7.8125
1755832697.374227,-68.84765625,-54.19921875,-10.7421875,-41.50390625
1755832697.378069,-157.71484375,-55.6640625,-21.97265625,-134.27734375
1755832697.3819108,-153.3203125,-57.6171875,-21.97265625,-129.39453125
1755832697.385491,-63.96484375,-59.08203125,-14.16015625,-36.1328125
1755832697.389071,-63.96484375,-53.22265625,-22.94921875,-36.62109375
1755832697.392651,-146.97265625,-53.7109375,-39.0625,-132.32421875
1755832697.3962312,-147.94921875,-55.6640625,-35.15625,-132.8125
1755832697.3998113,-59.08203125,-56.15234375,-21.484375,-31.73828125
1755832697.4033914,-36.1328125,-56.640625,-14.6484375,-7.32421875
1755832697.4069712,-118.65234375,-58.59375,-21.484375,-111.81640625
1755832697.4105513,-164.55078125,-60.546875,-24.4140625,-156.25
1755832697.4141314,-83.49609375,-57.12890625,-17.08984375,-53.22265625
1755832697.4177115,-7.8125,-51.7578125,-11.23046875,26.85546875
1755832697.4212916,-86.42578125,-55.6640625,-18.06640625,-63.96484375
1755832697.4248717,-168.9453125,-61.5234375,-23.92578125,-153.3203125
1755832697.4286394,-109.86328125,-60.05859375,-22.4609375,-73.73046875
1755832697.432407,-32.2265625,-60.05859375,-18.5546875,12.20703125
1755832697.4361746,-71.2890625,-55.17578125,-22.4609375,-41.015625
1755832697.4399424,-151.85546875,-45.8984375,-30.2734375,-127.9296875
1755832697.44371,-119.140625,-46.38671875,-31.25,-95.21484375
1755832697.4474778,-30.76171875,-46.38671875,-31.25,5.37109375
1755832697.4512453,-35.64453125,-40.52734375,-32.2265625,-11.23046875
1755832697.455013,-119.62890625,-46.875,-35.15625,-113.28125
1755832697.4587808,-133.30078125,-44.43359375,-37.109375,-119.140625
1755832697.4625485,-57.6171875,-41.50390625,-37.59765625,-25.87890625
1755832697.466316,-26.85546875,-43.45703125,-30.2734375,3.41796875
1755832697.4700837,-97.65625,-42.96875,-26.3671875,-73.73046875
1755832697.473838,-145.99609375,-45.8984375,-27.34375,-123.046875
1755832697.4775918,-81.0546875,-43.9453125,-28.3203125,-47.8515625
1755832697.4813457,-19.04296875,-38.57421875,-30.2734375,22.94921875
1755832697.4850998,-58.59375,-38.57421875,-34.1796875,-38.0859375
1755832697.488854,-112.79296875,-41.50390625,-36.62109375,-105.95703125
1755832697.4926078,-69.3359375,-36.62109375,-32.71484375,-48.828125
1755832697.4963615,-0.9765625,-30.76171875,-28.3203125,27.83203125
1755832697.500116,-23.4375,-34.1796875,-31.25,-8.7890625
1755832697.50387,-95.703125,-39.0625,-37.109375,-89.84375
1755832697.507624,-97.16796875,-39.0625,-35.64453125,-72.265625
1755832697.5113778,-18.06640625,-43.45703125,-35.15625,18.06640625
1755832697.515132,0.0,-47.36328125,-39.0625,19.04296875
1755832697.5189364,-82.03125,-42.96875,-45.8984375,-86.9140625
1755832697.5227408,-110.3515625,-39.55078125,-46.38671875,-110.3515625
1755832697.526545,-30.76171875,-34.1796875,-39.55078125,-4.39453125
1755832697.5303495,5.37109375,-32.2265625,-33.69140625,30.2734375
1755832697.534154,-73.73046875,-36.1328125,-39.55078125,-65.4296875
1755832697.5379584,-129.8828125,-40.0390625,-47.36328125,-117.1875
1755832697.5417628,-62.98828125,-38.57421875,-42.96875,-32.2265625
1755832697.5455673,11.71875,-37.109375,-35.15625,45.41015625
1755832697.5493715,-45.41015625,-39.0625,-39.0625,-29.296875
1755832697.553176,-133.7890625,-43.45703125,-47.8515625,-130.37109375
1755832697.5569804,-88.37890625,-41.50390625,-43.9453125,-72.75390625
1755832697.5607848,-8.7890625,-35.64453125,-34.66796875,24.90234375
1755832697.5645907,-30.76171875,-27.83203125,-33.203125,-11.23046875
1755832697.5683968,-110.3515625,-25.87890625,-45.8984375,-119.140625
1755832697.5722027,-112.79296875,-32.71484375,-51.7578125,-107.421875
1755832697.5760088,-27.34375,-38.0859375,-41.015625,9.27734375
1755832697.579815,-10.25390625,-40.0390625,-41.015625,12.6953125
1755832697.5836203,-90.8203125,-40.0390625,-54.6875,-93.26171875
1755832697.587427,-119.140625,-35.15625,-57.12890625,-117.67578125
1755832697.5912323,-44.43359375,-36.1328125,-50.29296875,-16.6015625
1755832697.595039,-9.765625,-41.9921875,-44.921875,26.85546875
1755832697.5988443,-74.70703125,-37.109375,-41.015625,-64.453125
1755832697.6026506,-138.671875,-36.1328125,-45.8984375,-139.16015625
1755832697.6064565,-95.703125,-40.0390625,-50.29296875,-81.54296875
1755832697.6111612,-18.5546875,-36.62109375,-44.921875,4.8828125
1755832697.615866,-50.29296875,-44.43359375,-39.0625,-37.59765625
1755832697.620571,-136.23046875,-53.7109375,-43.45703125,-125.9765625
1755832697.6252754,-129.8828125,-55.17578125,-47.8515625,-104.4921875
1755832697.62998,-42.96875,-49.8046875,-36.1328125,-0.48828125
1755832697.6346846,-38.0859375,-43.45703125,-31.73828125,-8.7890625
1755832697.6393893,-123.53515625,-47.8515625,-38.57421875,-104.00390625
1755832697.644094,-144.53125,-50.29296875,-44.921875,-112.79296875
1755832697.6487987,-64.94140625,-41.9921875,-42.96875,-28.80859375
1755832697.6535034,-23.4375,-34.1796875,-37.59765625,1.46484375
1755832697.658208,-105.46875,-40.52734375,-42.48046875,-93.26171875
1755832697.6629128,-166.9921875,-55.6640625,-48.33984375,-150.87890625
1755832697.666778,-98.14453125,-56.15234375,-43.9453125,-77.63671875
1755832697.6706436,-19.04296875,-48.828125,-35.64453125,9.765625
1755832697.6745088,-72.265625,-41.50390625,-36.62109375,-51.7578125
1755832697.678374,-145.5078125,-35.64453125,-43.45703125,-139.16015625
1755832697.6822395,-101.07421875,-35.15625,-40.52734375,-79.1015625
1755832697.6861048,-28.80859375,-40.0390625,-33.69140625,9.27734375
1755832697.68997,-61.03515625,-46.38671875,-40.52734375,-38.0859375
1755832697.6938355,-143.5546875,-43.45703125,-49.31640625,-141.6015625
1755832697.6977007,-125.0,-39.0625,-46.875,-119.140625
1755832697.701566,-25.390625,-37.109375,-42.48046875,2.9296875
1755832697.7054317,-24.4140625,-32.71484375,-40.52734375,5.37109375
1755832697.7092967,-124.51171875,-27.34375,-41.015625,-108.88671875
1755832697.7131157,-135.25390625,-24.4140625,-38.57421875,-113.76953125
1755832697.7169347,-39.0625,-30.2734375,-30.76171875,-9.765625
1755832697.7207537,-5.859375,-32.2265625,-33.203125,13.671875
1755832697.7245724,-81.0546875,-27.83203125,-43.45703125,-83.49609375
1755832697.7283914,-123.046875,-26.3671875,-41.50390625,-124.51171875
1755832697.7322104,-59.08203125,-32.2265625,-33.203125,-34.1796875
1755832697.7360294,-3.41796875,-33.203125,-32.71484375,25.390625
1755832697.7398484,-51.26953125,-28.80859375,-31.25,-47.36328125
1755832697.7436671,-118.1640625,-32.2265625,-30.76171875,-117.1875
1755832697.747486,-81.54296875,-34.1796875,-31.73828125,-47.36328125
1755832697.751305,-14.16015625,-31.25,-31.73828125,32.71484375
1755832697.755124,-41.50390625,-29.296875,-34.66796875,-20.99609375
1755832697.7588725,-115.72265625,-33.203125,-39.55078125,-105.95703125
1755832697.7626204,-108.88671875,-40.52734375,-41.50390625,-84.9609375
1755832697.7663689,-26.85546875,-41.015625,-39.0625,8.7890625
1755832697.770117,-21.97265625,-39.55078125,-40.0390625,-2.44140625
1755832697.7738652,-101.07421875,-41.9921875,-41.015625,-102.5390625
1755832697.7776134,-121.58203125,-45.8984375,-41.9921875,-115.234375
1755832697.7813616,-55.17578125,-47.36328125,-42.48046875,-26.3671875
1755832697.7851098,-19.53125,-44.921875,-36.62109375,8.30078125
1755832697.788858,-71.77734375,-38.0859375,-30.2734375,-64.453125
1755832697.7926064,-124.51171875,-39.55078125,-34.1796875,-121.58203125
1755832697.7963543,-74.70703125,-43.9453125,-36.1328125,-59.08203125
1755832697.8001027,2.9296875,-37.109375,-27.83203125,27.34375
1755832697.8039722,-35.64453125,-34.1796875,-27.83203125,-25.390625
1755832697.8078418,-117.67578125,-41.50390625,-35.64453125,-114.2578125
1755832697.8117113,-95.703125,-42.96875,-33.203125,-77.63671875
1755832697.8155806,-9.765625,-44.43359375,-27.34375,10.7421875
1755832697.81945,-16.11328125,-46.875,-32.2265625,-16.6015625
1755832697.8233197,-101.5625,-40.0390625,-35.15625,-102.5390625
1755832697.8271892,-109.375,-38.57421875,-31.73828125,-92.7734375
1755832697.8310587,-29.78515625,-36.62109375,-30.2734375,0.0
1755832697.834928,-5.37109375,-35.15625,-33.69140625,20.5078125
1755832697.8387976,-85.44921875,-35.15625,-39.0625,-78.61328125
1755832697.842667,-125.48828125,-41.9921875,-36.62109375,-117.67578125
1755832697.8465366,-36.62109375,-43.9453125,-29.78515625,-27.34375
1755832697.8514042,18.06640625,-36.62109375,-26.3671875,32.2265625
1755832697.8562715,-54.6875,-39.0625,-31.73828125,-51.7578125
1755832697.8611393,-115.72265625,-40.52734375,-38.57421875,-118.1640625
1755832697.8660069,-59.08203125,-33.69140625,-36.1328125,-40.0390625
1755832697.8708744,13.18359375,-32.71484375,-32.2265625,30.2734375
1755832697.875742,-37.109375,-38.0859375,-34.66796875,-32.71484375
1755832697.8806098,-125.0,-40.0390625,-38.57421875,-120.60546875
1755832697.8854773,-106.4453125,-35.15625,-35.15625,-83.0078125
1755832697.8903449,-20.99609375,-33.69140625,-29.78515625,19.04296875
1755832697.8952124,-31.25,-38.0859375,-31.25,-9.27734375
1755832697.90008,-110.83984375,-33.69140625,-30.76171875,-102.05078125
1755832697.9049475,-123.046875,-30.76171875,-29.78515625,-99.609375
1755832697.9074645,-45.41015625,-26.85546875,-32.71484375,-21.484375
1755832697.909981,-23.92578125,-23.92578125,-32.2265625,2.44140625
1755832697.9124975,-99.609375,-31.25,-36.1328125,-84.47265625
1755832697.9150145,-127.44140625,-32.2265625,-38.0859375,-123.53515625
1755832697.917531,-58.10546875,-29.296875,-27.83203125,-32.2265625
1755832697.9200478,-9.765625,-34.1796875,-24.90234375,22.94921875
1755832697.9225645,-77.1484375,-34.66796875,-33.69140625,-57.6171875
1755832697.9250813,-143.06640625,-34.66796875,-39.0625,-129.8828125
1755832697.927598,-90.33203125,-41.50390625,-40.52734375,-68.84765625
1755832697.9301145,-10.25390625,-36.1328125,-41.015625,16.6015625
1755832697.9326313,-42.48046875,-31.25,-41.015625,-32.2265625
1755832697.935148,-126.46484375,-41.9921875,-47.36328125,-113.76953125
1755832697.9388578,-119.62890625,-42.96875,-50.29296875,-92.28515625
1755832697.9425676,-37.109375,-35.64453125,-44.43359375,-12.6953125
1755832697.9462776,-22.94921875,-35.15625,-44.921875,-17.08984375
1755832697.9499874,-117.1875,-36.62109375,-51.26953125,-110.3515625
1755832697.9536972,-140.625,-30.76171875,-50.78125,-116.2109375
1755832697.957407,-52.734375,-30.76171875,-44.921875,-26.3671875
1755832697.9611168,-21.484375,-33.69140625,-40.0390625,4.8828125
1755832697.9648266,-95.703125,-31.73828125,-39.0625,-77.1484375
1755832697.9685364,-148.4375,-34.66796875,-41.50390625,-135.25390625
1755832697.9722464,-89.84375,-26.3671875,-35.15625,-58.10546875
1755832697.9759562,-15.625,-14.6484375,-27.34375,17.08984375
1755832697.979666,-69.82421875,-20.99609375,-37.59765625,-51.7578125
1755832697.9834569,-142.08984375,-21.484375,-46.38671875,-140.625
1755832697.9872477,-81.54296875,-11.71875,-40.52734375,-82.51953125
1755832697.9910386,-1.953125,-6.8359375,-38.0859375,12.20703125
1755832697.9948294,-36.1328125,-12.6953125,-37.59765625,-34.1796875
1755832697.9986205,-105.95703125,-16.6015625,-41.015625,-121.09375
1755832698.0024114,-90.8203125,-19.04296875,-45.8984375,-97.65625
1755832698.0062022,-17.578125,-16.6015625,-43.45703125,-4.8828125
1755832698.009993,-4.39453125,-11.23046875,-41.9921875,-1.46484375
1755832698.013784,-91.30859375,-13.18359375,-47.36328125,-112.3046875
1755832698.0175748,-124.51171875,-11.23046875,-55.17578125,-129.8828125
1755832698.0213656,-54.19921875,-13.671875,-54.6875,-26.85546875
1755832698.0251565,-18.06640625,-23.92578125,-46.875,20.01953125
1755832698.0299883,-87.40234375,-24.90234375,-50.29296875,-73.2421875
1755832698.0348206,-145.01953125,-21.484375,-53.7109375,-128.41796875
1755832698.0396526,-80.56640625,-21.484375,-46.875,-46.875
1755832698.0444846,-10.7421875,-20.99609375,-36.62109375,17.578125
1755832698.0493166,-56.15234375,-24.4140625,-38.0859375,-38.0859375
1755832698.054149,-120.1171875,-34.1796875,-48.828125,-107.421875
1755832698.058981,-96.19140625,-38.0859375,-51.7578125,-58.59375
1755832698.063813,-24.4140625,-33.69140625,-50.78125,24.4140625
1755832698.068645,-34.1796875,-33.69140625,-46.38671875,-7.8125
1755832698.073477,-116.2109375,-34.66796875,-45.41015625,-98.6328125
1755832698.078309,-116.2109375,-35.64453125,-50.78125,-87.890625
1755832698.083141,-34.66796875,-34.1796875,-51.26953125,3.41796875
1755832698.0870392,-5.859375,-25.87890625,-43.9453125,18.5546875
1755832698.0909374,-79.58984375,-28.3203125,-45.8984375,-76.171875
1755832698.0948355,-117.1875,-31.73828125,-51.26953125,-109.86328125
1755832698.0987337,-48.33984375,-26.85546875,-47.36328125,-20.01953125
1755832698.1026318,-2.9296875,-30.76171875,-43.45703125,24.90234375
1755832698.1065302,-55.6640625,-33.69140625,-46.875,-36.1328125
1755832698.1104283,-125.0,-34.66796875,-53.22265625,-92.7734375
1755832698.1143265,-86.9140625,-31.73828125,-48.828125,-43.45703125
1755832698.1182246,-1.46484375,-24.90234375,-40.52734375,41.9921875
1755832698.1221228,-42.96875,-29.296875,-44.43359375,-17.08984375
1755832698.126021,-138.671875,-39.0625,-51.7578125,-120.1171875
1755832698.129919,-105.95703125,-39.0625,-50.78125,-82.03125
1755832698.1336727,-10.25390625,-34.1796875,-42.96875,20.99609375
1755832698.137426,-20.99609375,-36.1328125,-39.0625,4.39453125
1755832698.1411798,-112.79296875,-37.59765625,-43.45703125,-96.6796875
1755832698.1449332,-121.09375,-33.69140625,-47.8515625,-99.12109375
1755832698.148687,-36.62109375,-28.80859375,-41.9921875,0.48828125
1755832698.1524403,-9.27734375,-31.25,-35.64453125,27.34375
1755832698.156194,-87.40234375,-35.15625,-37.59765625,-64.453125
1755832698.1599476,-137.6953125,-41.50390625,-45.41015625,-116.2109375
1755832698.163701,-58.10546875,-36.62109375,-43.9453125,-30.2734375
1755832698.1674547,12.6953125,-28.80859375,-38.0859375,42.48046875
1755832698.171208,-63.4765625,-33.69140625,-46.875,-53.22265625
1755832698.1749618,-130.37109375,-36.62109375,-52.734375,-139.6484375
1755832698.178731,-75.68359375,-36.62109375,-52.24609375,-64.94140625
1755832698.1825,-0.9765625,-36.1328125,-55.6640625,24.90234375
1755832698.1862693,-31.25,-31.25,-57.12890625,-19.04296875
1755832698.1900387,-110.83984375,-34.1796875,-60.546875,-115.234375
1755832698.1938078,-100.09765625,-41.9921875,-66.89453125,-88.37890625
1755832698.197577,-20.01953125,-41.015625,-64.94140625,14.16015625
1755832698.2013462,-19.53125,-39.0625,-61.03515625,-4.8828125
1755832698.2051153,-104.00390625,-41.015625,-61.5234375,-107.91015625
1755832698.2088847,-113.28125,-41.50390625,-65.4296875,-104.98046875
1755832698.212654,-37.109375,-40.52734375,-65.91796875,1.953125
1755832698.216423,-11.71875,-36.1328125,-63.4765625,13.671875
1755832698.2201922,-76.171875,-34.66796875,-64.94140625,-75.1953125
1755832698.2239382,-128.41796875,-32.71484375,-66.89453125,-118.65234375
1755832698.227684,-72.265625,-34.1796875,-64.94140625,-41.9921875
1755832698.23143,-12.20703125,-38.57421875,-62.01171875,24.4140625
1755832698.235176,-65.91796875,-39.0625,-66.40625,-45.8984375
1755832698.238922,-143.06640625,-41.50390625,-64.453125,-118.65234375
1755832698.242668,-98.14453125,-36.1328125,-60.546875,-57.6171875
1755832698.246414,-13.18359375,-34.1796875,-62.98828125,21.97265625
1755832698.2501595,-38.57421875,-39.55078125,-62.98828125,-11.71875
1755832698.2539058,-115.72265625,-38.0859375,-61.5234375,-98.14453125
1755832698.2576518,-122.0703125,-35.64453125,-64.453125,-99.12109375
1755832698.2613976,-42.48046875,-36.62109375,-64.94140625,-13.18359375
1755832698.2651436,-15.13671875,-32.71484375,-61.5234375,-0.48828125
1755832698.2701402,-99.609375,-33.203125,-59.5703125,-96.19140625
1755832698.275137,-145.99609375,-40.52734375,-59.08203125,-130.37109375
1755832698.2801335,-61.5234375,-43.45703125,-58.59375,-28.3203125
1755832698.28513,-2.9296875,-44.921875,-53.22265625,26.85546875
1755832698.2901266,-79.1015625,-48.33984375,-50.78125,-73.73046875
1755832698.295123,-147.94921875,-49.31640625,-47.8515625,-143.5546875
1755832698.30012,-86.42578125,-49.8046875,-43.9453125,-65.91796875
1755832698.3051164,-6.8359375,-43.45703125,-35.64453125,25.390625
1755832698.310113,-58.10546875,-42.96875,-31.73828125,-32.71484375
1755832698.3151095,-140.625,-46.38671875,-37.109375,-134.765625
1755832698.3201065,-107.91015625,-50.29296875,-39.0625,-86.42578125
1755832698.3251028,-24.4140625,-48.33984375,-31.73828125,15.625
1755832698.3275838,-42.96875,-47.8515625,-36.62109375,-20.99609375
1755832698.3300643,-117.1875,-52.734375,-44.921875,-121.09375
1755832698.3325455,-116.69921875,-52.734375,-47.36328125,-93.75
1755832698.3350265,-39.55078125,-49.8046875,-46.38671875,2.9296875
1755832698.3375072,-13.671875,-46.875,-43.9453125,0.48828125
1755832698.3399882,-86.9140625,-44.43359375,-46.38671875,-92.28515625
1755832698.3424692,-114.2578125,-45.8984375,-50.29296875,-109.375
1755832698.34495,-42.96875,-47.36328125,-50.78125,-12.6953125
1755832698.347431,-1.953125,-40.0390625,-43.45703125,28.80859375
1755832698.349912,-65.91796875,-37.59765625,-35.64453125,-53.7109375
1755832698.352393,-122.0703125,-44.43359375,-38.0859375,-105.46875
1755832698.3548737,-78.125,-46.875,-44.43359375,-37.59765625
1755832698.3586464,-16.11328125,-45.8984375,-45.8984375,15.13671875
1755832698.3624191,-41.9921875,-38.57421875,-44.921875,-32.2265625
1755832698.366192,-119.62890625,-37.59765625,-51.7578125,-119.140625
1755832698.3699648,-98.6328125,-45.41015625,-53.22265625,-91.30859375
1755832698.3737376,-13.671875,-49.31640625,-46.38671875,12.20703125
1755832698.3775103,-25.390625,-49.31640625,-43.9453125,-3.41796875
1755832698.3812833,-98.6328125,-45.8984375,-45.41015625,-91.30859375
1755832698.385056,-104.98046875,-44.43359375,-48.33984375,-91.796875
1755832698.3888288,-31.25,-34.1796875,-39.55078125,-0.9765625
1755832698.3926015,-2.44140625,-29.78515625,-33.203125,28.3203125
1755832698.3963745,-75.68359375,-33.203125,-41.50390625,-67.3828125
1755832698.4001472,-119.62890625,-39.55078125,-42.48046875,-105.46875
1755832698.4063282,-58.10546875,-42.96875,-35.15625,-19.53125
1755832698.4125094,-2.44140625,-39.55078125,-37.59765625,33.69140625
1755832698.4186904,-62.5,-43.45703125,-41.9921875,-46.875
1755832698.4248717,-130.859375,-42.48046875,-42.96875,-121.58203125
1755832698.4310527,-78.61328125,-38.57421875,-37.109375,-54.6875
1755832698.437234,4.8828125,-38.0859375,-28.80859375,42.96875
1755832698.443415,-28.3203125,-37.59765625,-28.3203125,9.765625
1755832698.449596,-123.53515625,-41.50390625,-40.52734375,-100.5859375
1755832698.4557772,-104.98046875,-46.38671875,-43.9453125,-81.54296875
1755832698.4619582,-13.18359375,-44.921875,-35.15625,23.92578125
1755832698.4681394,-11.71875,-40.0390625,-31.73828125,14.16015625
1755832698.4743204,-98.6328125,-39.0625,-33.203125,-90.8203125
1755832698.4768395,-112.79296875,-39.55078125,-33.69140625,-105.95703125
1755832698.479359,-27.34375,-43.9453125,-34.66796875,-10.7421875
1755832698.4818778,8.30078125,-47.36328125,-33.69140625,17.08984375
1755832698.484397,-72.265625,-39.0625,-36.1328125,-79.58984375
1755832698.486916,-105.95703125,-36.1328125,-37.59765625,-104.98046875
1755832698.4894352,-20.99609375,-37.109375,-33.203125,-5.859375
1755832698.4919543,13.18359375,-32.2265625,-33.69140625,30.2734375
1755832698.4944737,-51.7578125,-39.0625,-42.48046875,-55.17578125
1755832698.4969926,-121.58203125,-43.9453125,-37.59765625,-127.44140625
1755832698.4995117,-83.49609375,-44.43359375,-31.73828125,-61.5234375
1755832698.5020308,-0.9765625,-45.41015625,-30.2734375,31.73828125
1755832698.50455,-22.94921875,-41.015625,-25.87890625,-6.8359375
1755832698.509481,-108.3984375,-43.45703125,-30.76171875,-110.3515625
1755832698.5144122,-88.8671875,-42.96875,-32.71484375,-75.1953125
1755832698.5193431,-20.5078125,-37.59765625,-29.78515625,12.20703125
1755832698.5242743,-32.2265625,-33.203125,-28.80859375,-7.8125
1755832698.529205,-103.515625,-35.64453125,-34.1796875,-97.16796875
1755832698.5341363,-123.046875,-37.59765625,-35.15625,-118.1640625
1755832698.5390675,-49.8046875,-39.55078125,-33.203125,-19.53125
1755832698.5439985,-1.953125,-41.015625,-28.80859375,19.53125
1755832698.5489297,-62.5,-39.0625,-27.83203125,-66.89453125
1755832698.553861,-126.46484375,-38.57421875,-29.78515625,-127.44140625
1755832698.558792,-83.49609375,-38.57421875,-27.34375,-68.84765625
1755832698.5637228,-18.06640625,-42.48046875,-29.78515625,6.34765625
1755832698.567704,-67.87109375,-45.8984375,-31.25,-51.26953125
1755832698.5716848,-151.3671875,-45.41015625,-37.109375,-134.27734375
1755832698.575666,-119.140625,-43.9453125,-36.62109375,-95.703125
1755832698.579647,-27.34375,-40.52734375,-26.3671875,-0.9765625
1755832698.5836282,-35.15625,-40.0390625,-27.34375,-19.53125
1755832698.5876093,-130.859375,-42.48046875,-39.55078125,-128.90625
1755832698.5915902,-140.625,-41.9921875,-41.9921875,-126.953125
1755832698.5955713,-61.03515625,-41.9921875,-33.69140625,-30.76171875
1755832698.5995524,-31.73828125,-40.0390625,-32.2265625,-19.04296875
1755832698.6035333,-102.5390625,-35.64453125,-38.57421875,-111.328125
1755832698.6075144,-141.6015625,-32.71484375,-43.9453125,-144.53125
1755832698.6114955,-76.171875,-31.25,-35.15625,-55.17578125
1755832698.6138575,-30.2734375,-35.64453125,-33.69140625,-1.953125
1755832698.61622,-84.47265625,-39.55078125,-41.015625,-72.265625
1755832698.6185825,-143.5546875,-37.59765625,-39.55078125,-136.23046875
1755832698.6209447,-88.8671875,-31.25,-42.96875,-71.77734375
1755832698.623307,-11.23046875,-27.34375,-40.52734375,12.20703125
1755832698.6256697,-44.921875,-23.92578125,-33.203125,-31.73828125
1755832698.6280315,-118.65234375,-19.04296875,-41.015625,-116.2109375
1755832698.630394,-96.6796875,-22.4609375,-49.8046875,-86.42578125
1755832698.6327562,-13.18359375,-27.83203125,-48.33984375,9.765625
1755832698.6351185,-18.5546875,-21.97265625,-47.8515625,-12.6953125
1755832698.637481,-108.3984375,-20.01953125,-50.78125,-109.86328125
1755832698.6398432,-105.46875,-33.69140625,-57.12890625,-93.75
1755832698.6436172,-12.20703125,-40.0390625,-58.59375,15.13671875
1755832698.647391,-8.30078125,-30.76171875,-52.734375,11.71875
1755832698.651165,-90.33203125,-24.90234375,-52.734375,-87.40234375
1755832698.6549387,-127.44140625,-33.203125,-56.15234375,-122.55859375
1755832698.6587126,-57.6171875,-29.296875,-56.15234375,-41.50390625
1755832698.6624866,-1.953125,-25.87890625,-54.19921875,23.4375
1755832698.6662605,-57.6171875,-29.296875,-48.828125,-52.24609375
1755832698.6700344,-115.234375,-32.2265625,-45.41015625,-116.69921875
1755832698.673808,-72.75390625,-37.59765625,-42.48046875,-51.26953125
1755832698.677582,-9.27734375,-40.0390625,-40.52734375,12.6953125
1755832698.681356,-49.31640625,-42.96875,-45.41015625,-41.50390625
1755832698.68513,-130.859375,-44.43359375,-52.734375,-137.20703125
1755832698.6900806,-108.3984375,-46.875,-53.7109375,-107.421875
1755832698.6950316,-23.92578125,-45.8984375,-47.8515625,2.44140625
1755832698.6999824,-17.578125,-39.55078125,-40.0390625,-0.9765625
1755832698.7049332,-103.02734375,-45.8984375,-45.8984375,-100.5859375
1755832698.709884,-124.0234375,-50.78125,-52.734375,-114.2578125
1755832698.7148347,-38.57421875,-50.78125,-46.38671875,-13.671875
1755832698.7197857,-2.9296875,-48.33984375,-41.015625,21.484375
1755832698.7247365,-78.125,-43.45703125,-46.875,-64.453125
1755832698.7296872,-135.7421875,-44.921875,-60.546875,-119.62890625
1755832698.7346382,-63.96484375,-41.9921875,-58.10546875,-39.55078125
1755832698.739589,3.90625,-37.109375,-46.875,37.109375
1755832698.7445395,-51.7578125,-40.0390625,-46.875,-36.62109375
1755832698.7481723,-128.90625,-46.875,-50.78125,-131.8359375
1755832698.751805,-95.703125,-47.8515625,-50.29296875,-72.265625
1755832698.755438,-20.5078125,-50.29296875,-48.33984375,25.390625
1755832698.7590704,-41.9921875,-49.8046875,-51.7578125,-18.06640625
1755832698.7627032,-116.69921875,-43.45703125,-57.12890625,-113.28125
1755832698.766336,-103.515625,-44.43359375,-61.03515625,-85.44921875
1755832698.7699685,-12.20703125,-40.52734375,-56.640625,19.04296875
1755832698.7736013,-6.34765625,-37.109375,-52.24609375,7.8125
1755832698.7772338,-103.515625,-41.015625,-56.15234375,-102.5390625
1755832698.7808666,-126.953125,-40.52734375,-60.546875,-111.328125
1755832698.7844992,-35.15625,-36.1328125,-55.6640625,-7.8125
1755832698.788132,1.46484375,-37.109375,-50.29296875,22.94921875
1755832698.793187,-78.61328125,-42.48046875,-52.24609375,-76.171875
1755832698.798242,-125.48828125,-44.43359375,-53.22265625,-129.8828125
1755832698.8032968,-57.6171875,-41.50390625,-48.33984375,-45.41015625
1755832698.8083518,4.8828125,-36.1328125,-41.9921875,28.80859375
1755832698.8134067,-52.734375,-39.0625,-41.015625,-40.0390625
1755832698.8184617,-121.09375,-39.55078125,-40.0390625,-110.3515625
1755832698.8235166,-88.8671875,-45.41015625,-42.96875,-58.59375
1755832698.8285716,-17.578125,-48.828125,-46.38671875,24.90234375
1755832698.8336265,-24.4140625,-38.0859375,-40.52734375,-2.9296875
1755832698.8386817,-102.5390625,-37.109375,-41.015625,-95.21484375
1755832698.8437364,-113.76953125,-41.50390625,-44.43359375,-89.35546875
1755832698.8487914,-37.109375,-42.96875,-43.9453125,1.46484375
1755832698.8513875,-16.11328125,-38.57421875,-44.43359375,11.71875
1755832698.8539834,-92.28515625,-38.57421875,-47.36328125,-88.37890625
1755832698.8565795,-116.69921875,-39.0625,-44.921875,-111.81640625
1755832698.8591757,-49.8046875,-39.55078125,-39.0625,-18.5546875
1755832698.8617716,-4.8828125,-42.96875,-36.62109375,21.484375
1755832698.8643675,-62.5,-41.9921875,-42.48046875,-52.24609375
1755832698.866964,-131.34765625,-40.52734375,-49.31640625,-114.2578125
1755832698.8695598,-85.9375,-30.76171875,-45.8984375,-57.6171875
1755832698.872156,-10.7421875,-33.203125,-39.55078125,15.625
1755832698.874752,-58.10546875,-39.55078125,-42.96875,-49.8046875
1755832698.877348,-146.484375,-41.9921875,-44.921875,-139.6484375
1755832698.879944,-105.95703125,-51.7578125,-41.50390625,-87.890625
1755832698.8837075,-3.41796875,-50.29296875,-31.25,27.83203125
1755832698.8874712,-16.11328125,-51.26953125,-28.80859375,6.34765625
1755832698.8912346,-117.67578125,-57.6171875,-32.71484375,-108.3984375
1755832698.894998,-131.8359375,-58.10546875,-31.73828125,-108.3984375
1755832698.8987615,-41.9921875,-55.17578125,-26.3671875,-5.37109375
1755832698.9025252,-6.34765625,-47.8515625,-22.4609375,19.04296875
1755832698.9062886,-90.8203125,-50.29296875,-32.71484375,-83.49609375
1755832698.9100523,-140.13671875,-57.6171875,-32.2265625,-120.1171875
1755832698.9138155,-52.24609375,-54.6875,-26.85546875,-21.484375
1755832698.9175792,12.20703125,-50.29296875,-28.3203125,43.45703125
1755832698.9213428,-67.3828125,-47.36328125,-29.78515625,-40.52734375
1755832698.9251063,-131.34765625,-48.33984375,-31.73828125,-119.140625
1755832698.9299,-73.73046875,-52.734375,-29.296875,-50.29296875
1755832698.934693,-5.859375,-54.6875,-24.90234375,29.78515625
1755832698.939487,-42.96875,-51.7578125,-30.2734375,-28.80859375
1755832698.9442804,-116.69921875,-48.828125,-32.71484375,-116.69921875
1755832698.949074,-92.7734375,-44.921875,-31.25,-80.56640625
1755832698.9538674,-8.7890625,-42.96875,-33.203125,20.99609375
1755832698.958661,-10.25390625,-39.55078125,-35.15625,10.7421875
1755832698.9634547,-98.6328125,-38.0859375,-37.109375,-94.23828125
1755832698.968248,-108.3984375,-39.0625,-36.62109375,-90.8203125
1755832698.9730418,-29.296875,-34.66796875,-32.2265625,6.8359375
1755832698.9778352,1.46484375,-31.73828125,-26.85546875,21.97265625
1755832698.9826288,-69.82421875,-37.109375,-28.80859375,-70.80078125
1755832698.9853225,-122.0703125,-39.0625,-34.66796875,-111.328125
1755832698.988016,-64.453125,-40.52734375,-32.2265625,-31.25
1755832698.9907098,-7.8125,-44.43359375,-25.390625,27.83203125
1755832698.9934032,-46.38671875,-44.43359375,-26.85546875,-38.0859375
1755832698.9960968,-117.67578125,-41.015625,-31.25,-109.375
1755832698.9987905,-77.1484375,-39.0625,-23.92578125,-51.26953125
1755832699.0014842,9.27734375,-37.109375,-18.06640625,30.76171875
1755832699.0041778,-15.13671875,-38.57421875,-21.484375,-2.44140625
1755832699.0068712,-96.19140625,-45.41015625,-30.2734375,-82.03125
1755832699.0095649,-94.23828125,-46.38671875,-36.1328125,-76.66015625
1755832699.0122583,-5.37109375,-36.62109375,-22.94921875,26.85546875
1755832699.0149522,7.32421875,-31.73828125,-17.578125,37.109375
1755832699.0188315,-75.68359375,-38.0859375,-25.87890625,-72.75390625
1755832699.0227113,-100.5859375,-43.45703125,-31.73828125,-97.16796875
1755832699.0265908,-28.3203125,-40.52734375,-32.2265625,-3.41796875
1755832699.0304704,12.6953125,-38.57421875,-30.76171875,36.62109375
1755832699.03435,-62.5,-41.9921875,-36.62109375,-52.734375
1755832699.0382297,-114.74609375,-40.0390625,-39.0625,-106.4453125
1755832699.0421093,-51.26953125,-43.9453125,-35.15625,-27.83203125
1755832699.0459888,15.625,-46.38671875,-29.78515625,52.734375
1755832699.0498683,-27.83203125,-45.8984375,-30.76171875,-13.671875
1755832699.053748,-110.83984375,-44.921875,-30.2734375,-108.88671875
1755832699.0576274,-82.03125,-47.36328125,-28.80859375,-62.98828125
1755832699.061507,7.32421875,-48.33984375,-30.2734375,20.01953125
1755832699.0662084,-6.8359375,-44.43359375,-28.3203125,-10.25390625
1755832699.07091,-95.703125,-46.38671875,-31.73828125,-103.02734375
1755832699.0756114,-97.16796875,-47.36328125,-33.203125,-86.42578125
1755832699.0803127,-14.6484375,-39.55078125,-28.3203125,8.7890625
1755832699.0850143,-2.9296875,-41.9921875,-26.3671875,3.90625
1755832699.0897155,-90.33203125,-49.31640625,-32.71484375,-95.703125
1755832699.094417,-112.3046875,-49.31640625,-32.71484375,-112.3046875
1755832699.0991187,-23.4375,-45.8984375,-24.4140625,-0.48828125
1755832699.10382,16.6015625,-37.59765625,-18.06640625,39.55078125
1755832699.1085217,-56.15234375,-33.69140625,-18.06640625,-55.6640625
1755832699.113223,-111.328125,-36.62109375,-20.5078125,-109.86328125
1755832699.1179245,-59.08203125,-43.45703125,-18.5546875,-37.109375
1755832699.121735,6.34765625,-45.8984375,-17.08984375,31.73828125
1755832699.1255455,-31.25,-42.48046875,-17.578125,-25.87890625
1755832699.1293564,-109.86328125,-46.875,-23.4375,-115.234375
1755832699.133167,-93.75,-46.875,-24.4140625,-72.265625
1755832699.1369777,-2.9296875,-41.50390625,-15.13671875,26.3671875
1755832699.140788,-0.48828125,-40.52734375,-12.6953125,7.8125
1755832699.1445987,-77.1484375,-42.96875,-20.01953125,-77.1484375
1755832699.1484094,-88.37890625,-39.55078125,-24.4140625,-81.54296875
1755832699.15222,-18.06640625,-33.69140625,-21.484375,3.90625
1755832699.156031,20.5078125,-31.73828125,-21.484375,30.76171875
1755832699.1598413,-59.08203125,-40.52734375,-34.66796875,-64.94140625
1755832699.163652,-109.375,-44.921875,-39.55078125,-108.88671875
1755832699.1674163,-33.69140625,-41.015625,-28.3203125,-20.99609375
1755832699.1711807,19.04296875,-39.55078125,-20.01953125,42.96875
1755832699.174945,-47.36328125,-39.55078125,-22.4609375,-33.69140625
1755832699.1787095,-111.328125,-42.48046875,-28.3203125,-102.5390625
1755832699.182474,-59.08203125,-42.96875,-27.83203125,-45.41015625
1755832699.1862383,13.671875,-37.59765625,-22.94921875,44.921875
1755832699.190003,-29.296875,-48.828125,-31.73828125,-7.32421875
1755832699.193767,-112.79296875,-54.19921875,-41.015625,-119.62890625
1755832699.1975317,-85.9375,-48.33984375,-38.0859375,-91.796875
1755832699.201296,7.32421875,-41.50390625,-27.83203125,23.4375
1755832699.2050602,-1.46484375,-40.52734375,-28.3203125,20.99609375
1755832699.2088246,-100.09765625,-44.43359375,-33.69140625,-97.16796875
1755832699.213936,-105.46875,-40.0390625,-28.3203125,-94.23828125
1755832699.2190475,-18.06640625,-36.1328125,-20.99609375,18.06640625
1755832699.224159,6.34765625,-42.96875,-20.5078125,41.50390625
1755832699.2292705,-67.87109375,-48.33984375,-26.85546875,-60.05859375
1755832699.234382,-102.5390625,-44.921875,-26.3671875,-103.515625
1755832699.2394934,-27.34375,-46.875,-24.4140625,-14.16015625
1755832699.2446048,27.83203125,-43.9453125,-24.90234375,41.015625
1755832699.2497163,-38.0859375,-44.921875,-27.34375,-37.59765625
1755832699.2548275,-106.93359375,-44.43359375,-30.2734375,-114.74609375
1755832699.2599392,-64.94140625,-38.57421875,-28.3203125,-44.921875
1755832699.2650506,8.30078125,-39.55078125,-22.4609375,43.45703125
1755832699.270162,-19.04296875,-32.2265625,-16.11328125,-2.9296875
1755832699.272657,-99.609375,-30.76171875,-17.08984375,-90.8203125
1755832699.2751513,-82.03125,-32.71484375,-16.11328125,-62.98828125
1755832699.2776456,5.859375,-27.83203125,-13.18359375,36.1328125
1755832699.2801402,7.8125,-30.2734375,-15.13671875,31.25
1755832699.2826347,-75.68359375,-32.71484375,-13.671875,-68.359375
1755832699.2851293,-96.6796875,-35.15625,-12.6953125,-89.84375
1755832699.287624,-29.296875,-42.96875,-13.671875,-16.11328125
1755832699.2901185,1.953125,-39.0625,-9.27734375,20.01953125
1755832699.292613,-64.453125,-34.66796875,-10.7421875,-56.15234375
1755832699.2951074,-115.234375,-42.48046875,-14.16015625,-116.2109375
1755832699.297602,-62.01171875,-38.57421875,-11.71875,-40.0390625
1755832699.3000965,1.953125,-33.203125,-11.71875,24.4140625
1755832699.3038342,-38.0859375,-39.0625,-16.11328125,-35.64453125
1755832699.307572,-114.74609375,-41.9921875,-20.99609375,-106.4453125
1755832699.3113098,-95.703125,-41.9921875,-21.484375,-72.265625
1755832699.3150475,-8.7890625,-42.96875,-18.06640625,15.625
1755832699.3187852,-23.92578125,-42.48046875,-17.578125,-16.11328125
1755832699.322523,-120.60546875,-41.9921875,-17.08984375,-116.2109375
1755832699.3262608,-115.234375,-43.9453125,-16.6015625,-100.5859375
1755832699.3299985,-24.4140625,-41.015625,-15.13671875,1.953125
1755832699.3337362,0.0,-42.96875,-11.71875,15.13671875
1755832699.337474,-79.1015625,-42.48046875,-14.16015625,-82.03125
1755832699.3412118,-115.72265625,-37.109375,-17.578125,-107.91015625
1755832699.3449495,-39.55078125,-54.19921875,-17.578125,-17.08984375
1755832699.3487177,8.7890625,-56.640625,-13.18359375,26.3671875
1755832699.3524857,-55.6640625,-41.015625,-9.765625,-46.38671875
1755832699.3562536,-114.2578125,-32.2265625,-10.7421875,-101.5625
1755832699.3600216,-53.22265625,-32.71484375,-9.27734375,-33.69140625
1755832699.3637898,6.34765625,-38.57421875,-1.953125,35.15625
1755832699.3675578,-42.96875,-39.0625,-4.39453125,-23.92578125
1755832699.3713255,-112.3046875,-39.55078125,-16.6015625,-113.28125
1755832699.375094,-87.40234375,-33.203125,-20.01953125,-77.1484375
1755832699.378862,-1.953125,-33.203125,-20.01953125,20.5078125
1755832699.38263,-11.71875,-40.0390625,-24.4140625,-8.7890625
1755832699.386398,-99.609375,-32.2265625,-24.4140625,-113.28125
1755832699.390166,-114.2578125,-36.1328125,-28.3203125,-108.3984375
1755832699.393918,-28.3203125,-45.41015625,-27.34375,-6.8359375
1755832699.3976698,0.9765625,-39.0625,-25.87890625,8.7890625
1755832699.4014218,-85.44921875,-33.69140625,-40.0390625,-88.37890625
1755832699.4051738,-124.0234375,-37.59765625,-48.33984375,-125.0
1755832699.4089258,-42.96875,-35.15625,-50.78125,-31.25
1755832699.4126778,15.625,-28.80859375,-48.828125,23.92578125
1755832699.4164295,-52.24609375,-33.203125,-50.29296875,-60.546875
1755832699.4201815,-98.6328125,-34.1796875,-55.6640625,-105.95703125
1755832699.4239335,-43.9453125,-32.2265625,-57.12890625,-42.48046875
1755832699.4276853,8.30078125,-31.25,-52.734375,16.6015625
1755832699.4314373,-17.578125,-25.390625,-53.7109375,-19.53125
1755832699.4351892,-95.21484375,-24.4140625,-63.96484375,-104.00390625
1755832699.4389334,-81.0546875,-24.90234375,-61.03515625,-71.77734375
1755832699.4426775,-3.90625,-26.3671875,-50.29296875,27.34375
1755832699.446422,-2.9296875,-24.90234375,-46.875,12.6953125
1755832699.450166,-80.56640625,-21.97265625,-52.734375,-84.9609375
1755832699.45391,-113.28125,-27.83203125,-61.5234375,-94.23828125
1755832699.4576545,-34.66796875,-32.2265625,-60.546875,1.46484375
1755832699.4613986,5.37109375,-30.76171875,-54.6875,34.1796875
1755832699.4651427,-71.77734375,-34.1796875,-59.5703125,-63.4765625
1755832699.4688869,-116.2109375,-31.25,-67.3828125,-124.51171875
1755832699.472631,-45.8984375,-20.5078125,-62.98828125,-40.0390625
1755832699.476375,5.37109375,-21.484375,-49.8046875,24.90234375
1755832699.4801197,-62.5,-35.64453125,-54.19921875,-48.33984375
1755832699.4839866,-132.8125,-43.45703125,-62.01171875,-130.37109375
1755832699.4878535,-94.7265625,-39.55078125,-53.7109375,-75.1953125
1755832699.491721,-15.13671875,-46.875,-46.38671875,20.99609375
1755832699.4955876,-38.0859375,-50.78125,-46.38671875,-20.01953125
1755832699.4994547,-124.0234375,-41.9921875,-49.8046875,-122.55859375
1755832699.5033216,-114.74609375,-35.64453125,-49.31640625,-98.14453125
1755832699.5071888,-19.53125,-34.1796875,-43.9453125,7.32421875
1755832699.511056,-11.23046875,-32.71484375,-41.015625,4.39453125
1755832699.5149229,-104.00390625,-30.76171875,-42.48046875,-109.375
1755832699.51879,-120.60546875,-22.4609375,-40.0390625,-122.0703125
1755832699.522657,-36.1328125,-20.99609375,-38.57421875,-21.97265625
1755832699.526524,2.9296875,-26.3671875,-36.62109375,16.11328125
1755832699.531345,-73.2421875,-23.92578125,-38.0859375,-69.3359375
1755832699.5361657,-134.27734375,-26.85546875,-42.48046875,-127.9296875
1755832699.5409863,-80.56640625,-36.62109375,-40.0390625,-53.7109375
1755832699.5458074,-12.6953125,-38.0859375,-35.64453125,19.04296875
1755832699.5506282,-55.17578125,-38.0859375,-32.2265625,-34.66796875
1755832699.555449,-129.39453125,-42.96875,-30.2734375,-108.3984375
1755832699.5602696,-95.703125,-44.921875,-32.71484375,-53.7109375
1755832699.5650904,-24.90234375,-40.52734375,-34.66796875,12.20703125
1755832699.5699112,-50.78125,-35.15625,-35.15625,-41.9921875
1755832699.574732,-125.9765625,-38.0859375,-40.52734375,-122.55859375
1755832699.579553,-122.0703125,-41.9921875,-41.9921875,-117.67578125
1755832699.5843737,-48.33984375,-37.109375,-31.25,-28.3203125
1755832699.588123,-27.34375,-31.73828125,-23.92578125,-13.671875
1755832699.5918727,-101.07421875,-32.71484375,-32.2265625,-109.375
1755832699.595622,-126.46484375,-38.57421875,-32.71484375,-125.9765625
1755832699.5993714,-47.8515625,-37.109375,-28.3203125,-35.15625
1755832699.6031208,-5.859375,-34.66796875,-30.2734375,6.8359375
1755832699.6068702,-71.2890625,-36.1328125,-29.78515625,-70.3125
1755832699.6106198,-126.46484375,-32.71484375,-33.203125,-128.41796875
1755832699.6143692,-79.1015625,-34.66796875,-40.52734375,-67.87109375
1755832699.6181183,-18.5546875,-35.64453125,-39.0625,2.44140625
1755832699.621868,-45.8984375,-34.1796875,-40.0390625,-41.015625
1755832699.6256175,-118.65234375,-38.57421875,-42.96875,-121.09375
1755832699.6293669,-95.21484375,-37.109375,-42.96875,-87.890625
1755832699.6331818,-14.6484375,-32.2265625,-37.59765625,4.39453125
1755832699.6369965,-26.85546875,-37.109375,-34.1796875,-20.99609375
1755832699.6408114,-113.28125,-39.55078125,-40.52734375,-119.140625
1755832699.644626,-115.72265625,-35.64453125,-47.36328125,-115.72265625
1755832699.648441,-20.99609375,-34.1796875,-44.921875,-14.6484375
1755832699.652256,-4.39453125,-25.87890625,-40.0390625,8.30078125
1755832699.6560707,-92.28515625,-23.4375,-41.9921875,-95.21484375
1755832699.6598856,-135.25390625,-31.25,-46.38671875,-132.8125
1755832699.6637003,-62.01171875,-36.62109375,-41.9921875,-30.2734375
1755832699.6675153,-10.25390625,-41.015625,-41.50390625,18.5546875
1755832699.67133,-82.03125,-38.0859375,-47.8515625,-75.68359375
1755832699.675145,-143.06640625,-38.0859375,-49.31640625,-144.53125
1755832699.6788993,-74.70703125,-33.69140625,-43.9453125,-55.6640625
1755832699.6826537,-2.44140625,-21.484375,-38.0859375,26.3671875
1755832699.686408,-66.89453125,-26.85546875,-41.9921875,-49.8046875
1755832699.6901624,-148.4375,-35.15625,-50.29296875,-137.20703125
1755832699.6939168,-111.328125,-37.109375,-49.8046875,-89.35546875
1755832699.697671,-27.83203125,-41.9921875,-44.921875,13.18359375
1755832699.7014253,-35.15625,-36.62109375,-41.015625,-6.34765625
1755832699.7051797,-114.74609375,-30.76171875,-40.52734375,-117.1875
1755832699.708934,-115.72265625,-32.2265625,-41.9921875,-109.375
1755832699.7126884,-49.8046875,-34.66796875,-39.55078125,0.48828125
1755832699.7164428,-24.4140625,-36.62109375,-35.15625,10.7421875
1755832699.7201972,-80.56640625,-38.0859375,-41.9921875,-79.58984375
1755832699.723945,-132.32421875,-36.1328125,-48.828125,-114.74609375
1755832699.7276924,-65.4296875,-38.0859375,-47.36328125,-44.43359375
1755832699.73144,-10.25390625,-39.0625,-42.96875,10.25390625
1755832699.7351875,-62.01171875,-29.296875,-42.48046875,-51.7578125
1755832699.7389352,-126.46484375,-29.296875,-46.38671875,-121.09375
1755832699.742683,-90.8203125,-36.1328125,-46.38671875,-65.4296875
1755832699.7464304,-17.578125,-30.76171875,-45.41015625,14.6484375
1755832699.750178,-42.48046875,-28.80859375,-44.43359375,-28.3203125
1755832699.7539256,-117.67578125,-39.55078125,-43.45703125,-114.2578125
1755832699.7576733,-103.515625,-40.0390625,-41.9921875,-98.6328125
1755832699.7614207,-23.4375,-28.80859375,-37.109375,-2.9296875
1755832699.7651684,-28.3203125,-24.90234375,-36.1328125,-12.6953125
1755832699.7689004,-110.3515625,-32.2265625,-45.8984375,-113.28125
1755832699.7726324,-130.859375,-31.25,-49.31640625,-121.58203125
1755832699.7763643,-58.59375,-30.2734375,-43.9453125,-29.296875
1755832699.7800963,-12.6953125,-40.52734375,-41.015625,20.99609375
1755832699.7838285,-85.44921875,-40.0390625,-40.0390625,-62.98828125
1755832699.7875605,-141.11328125,-36.1328125,-44.43359375,-131.8359375
1755832699.7912924,-76.171875,-36.1328125,-44.43359375,-55.6640625
1755832699.7950244,-7.8125,-36.62109375,-44.43359375,18.5546875
1755832699.7987566,-59.08203125,-31.73828125,-42.96875,-43.9453125
1755832699.8024886,-137.20703125,-24.90234375,-42.96875,-132.8125
1755832699.8062203,-85.44921875,-28.80859375,-44.43359375,-81.54296875
1755832699.8099525,-3.41796875,-36.1328125,-40.0390625,16.11328125
1755832699.8137252,-31.25,-33.69140625,-41.015625,-16.11328125
1755832699.8174982,-115.234375,-33.203125,-46.38671875,-122.0703125
1755832699.821271,-110.83984375,-38.0859375,-48.33984375,-102.05078125
1755832699.8250437,-23.4375,-33.69140625,-44.43359375,7.32421875
1755832699.828817,-21.484375,-29.296875,-42.96875,-5.37109375
1755832699.8325894,-108.88671875,-31.25,-46.875,-108.3984375
1755832699.836362,-121.09375,-36.1328125,-44.921875,-109.375
1755832699.840135,-38.0859375,-38.0859375,-44.43359375,-2.44140625
1755832699.8439078,-2.9296875,-35.64453125,-48.828125,18.5546875
1755832699.8476806,-83.49609375,-30.76171875,-47.36328125,-81.0546875
1755832699.8514535,-135.25390625,-28.3203125,-44.43359375,-126.953125
1755832699.8552265,-71.2890625,-30.76171875,-46.38671875,-52.24609375
1755832699.8589718,0.0,-39.0625,-40.52734375,21.484375
1755832699.8627176,-39.0625,-39.55078125,-35.64453125,-34.1796875
1755832699.8664632,-114.74609375,-38.0859375,-41.015625,-114.74609375
1755832699.8702087,-91.30859375,-44.43359375,-41.015625,-73.73046875
1755832699.8739543,-19.04296875,-42.48046875,-40.52734375,8.30078125
1755832699.8777,-32.2265625,-36.62109375,-45.41015625,-23.4375
1755832699.8814456,-107.91015625,-41.50390625,-50.78125,-102.5390625
1755832699.8851912,-119.140625,-44.43359375,-53.7109375,-95.21484375
1755832699.8889368,-42.96875,-42.96875,-46.875,-11.23046875
1755832699.8926826,-12.20703125,-38.57421875,-43.45703125,7.32421875
1755832699.896428,-85.9375,-36.1328125,-50.78125,-86.9140625
1755832699.9001737,-133.30078125,-32.71484375,-51.7578125,-120.60546875
1755832699.9062855,-63.96484375,-33.69140625,-43.45703125,-32.71484375
1755832699.9123974,0.48828125,-33.203125,-33.203125,18.06640625
1755832699.9185092,-65.4296875,-36.62109375,-39.0625,-62.98828125
1755832699.924621,-130.859375,-36.62109375,-44.921875,-131.8359375
1755832699.930733,-80.56640625,-33.69140625,-41.015625,-59.5703125
1755832699.9368448,-4.8828125,-41.9921875,-41.015625,21.97265625
1755832699.9429567,-35.64453125,-43.45703125,-45.41015625,-31.25
1755832699.9490683,-121.58203125,-37.59765625,-50.78125,-121.09375
1755832699.9551804,-102.5390625,-40.52734375,-47.8515625,-89.35546875
1755832699.9612925,-13.671875,-43.45703125,-41.50390625,7.8125
1755832699.967404,-24.90234375,-46.875,-44.43359375,-14.16015625
1755832699.973516,-112.79296875,-49.31640625,-46.875,-117.1875
1755832699.976058,-117.67578125,-42.48046875,-44.921875,-109.86328125
1755832699.9786005,-31.25,-43.45703125,-43.9453125,-5.37109375
1755832699.9811423,2.44140625,-47.8515625,-42.96875,20.01953125
1755832699.9836843,-79.1015625,-50.78125,-48.33984375,-81.0546875
1755832699.9862266,-121.58203125,-47.8515625,-48.33984375,-121.09375
1755832699.9887686,-43.9453125,-46.875,-40.52734375,-24.90234375
1755832699.9913106,8.30078125,-46.875,-40.0390625,31.25
1755832699.9938529,-56.640625,-44.43359375,-39.55078125,-51.26953125
1755832699.9963949,-115.234375,-41.9921875,-36.62109375,-118.1640625
1755832699.998937,-69.82421875,-46.38671875,-38.0859375,-53.7109375
1755832700.0014791,4.39453125,-50.78125,-37.59765625,25.87890625
1755832700.0040212,-24.90234375,-48.33984375,-35.64453125,-25.390625
1755832700.0089352,-99.12109375,-43.45703125,-41.015625,-114.74609375
1755832700.0138493,-78.61328125,-38.57421875,-38.0859375,-74.70703125
1755832700.0187633,3.41796875,-39.0625,-31.25,24.90234375
1755832700.023677,0.9765625,-40.52734375,-28.80859375,5.37109375
1755832700.0285914,-84.47265625,-37.59765625,-30.76171875,-86.9140625
1755832700.0335054,-99.12109375,-42.48046875,-33.69140625,-82.51953125
1755832700.0384195,-27.83203125,-44.921875,-27.34375,3.90625
1755832700.0433338,7.32421875,-40.52734375,-23.4375,20.5078125
1755832700.0482478,-56.640625,-46.38671875,-29.78515625,-64.453125
1755832700.053162,-106.4453125,-48.33984375,-33.69140625,-111.328125
1755832700.058076,-50.29296875,-37.109375,-27.34375,-38.0859375
1755832700.06299,19.53125,-29.296875,-18.06640625,36.62109375
1755832700.0667386,-33.203125,-32.2265625,-24.90234375,-29.78515625
1755832700.0704873,-110.83984375,-32.71484375,-33.203125,-111.328125
1755832700.074236,-65.4296875,-29.296875,-30.2734375,-53.7109375
1755832700.0779846,12.6953125,-34.66796875,-26.3671875,32.2265625
1755832700.0817332,-10.25390625,-41.015625,-26.85546875,-1.46484375
1755832700.085482,-87.890625,-42.48046875,-28.3203125,-87.890625
1755832700.0892303,-80.56640625,-38.0859375,-29.78515625,-64.453125
1755832700.0929792,1.953125,-37.109375,-22.94921875,28.3203125
1755832700.0967278,16.11328125,-39.55078125,-19.04296875,31.73828125
1755832700.1004765,-68.84765625,-38.57421875,-26.85546875,-67.87109375
1755832700.1042252,-106.93359375,-39.0625,-32.2265625,-108.88671875
1755832700.1079738,-27.83203125,-41.015625,-28.3203125,-20.99609375
1755832700.1106577,17.08984375,-42.48046875,-29.296875,22.94921875
1755832700.113341,-51.26953125,-45.41015625,-39.55078125,-65.91796875
1755832700.1160245,-101.07421875,-39.0625,-35.64453125,-118.65234375
1755832700.118708,-38.57421875,-34.66796875,-26.3671875,-34.1796875
1755832700.1213918,24.90234375,-34.1796875,-21.484375,35.15625
1755832700.1240754,-24.4140625,-34.1796875,-23.4375,-26.85546875
1755832700.126759,-105.46875,-42.96875,-34.1796875,-113.76953125
1755832700.1294427,-74.21875,-41.9921875,-33.203125,-68.84765625
1755832700.1321263,14.16015625,-38.57421875,-29.296875,28.3203125
1755832700.1348095,-6.34765625,-35.64453125,-24.4140625,-9.765625
1755832700.1374934,-88.8671875,-32.2265625,-18.06640625,-112.3046875
1755832700.140177,-75.68359375,-33.203125,-18.5546875,-87.40234375
1755832700.14392,15.13671875,-37.109375,-18.5546875,18.5546875
1755832700.1476629,21.484375,-34.66796875,-14.6484375,15.625
1755832700.1514058,-65.4296875,-27.83203125,-14.16015625,-87.890625
1755832700.1551487,-100.5859375,-37.109375,-17.578125,-118.65234375
1755832700.1588917,-24.4140625,-43.45703125,-16.6015625,-24.90234375
1755832700.1626348,33.69140625,-38.57421875,-12.20703125,31.73828125
1755832700.1663778,-30.76171875,-39.0625,-14.6484375,-54.6875
1755832700.1701207,-94.7265625,-48.33984375,-23.4375,-113.76953125
1755832700.1738636,-49.31640625,-56.640625,-27.83203125,-48.33984375
1755832700.1776066,13.671875,-50.29296875,-19.04296875,15.625
1755832700.1813495,-30.76171875,-46.875,-12.20703125,-28.80859375
1755832700.1850924,-101.07421875,-50.78125,-12.20703125,-101.07421875
1755832700.1889052,-68.359375,-44.921875,-8.7890625,-61.03515625
1755832700.1927185,-4.39453125,-44.921875,-2.44140625,27.34375
1755832700.196531,-14.6484375,-58.10546875,-3.90625,7.32421875
1755832700.2003438,-77.63671875,-57.6171875,-9.765625,-70.80078125
1755832700.2041569,-96.6796875,-53.22265625,-15.13671875,-79.58984375
1755832700.2079697,-25.87890625,-63.4765625,-12.20703125,-4.8828125
1755832700.2117825,-2.44140625,-65.91796875,-10.25390625,27.34375
1755832700.2155955,-82.51953125,-61.5234375,-20.99609375,-64.94140625
1755832700.2194085,-125.0,-62.98828125,-27.34375,-124.51171875
1755832700.223221,-60.05859375,-61.5234375,-17.578125,-42.48046875
1755832700.227034,0.0,-55.6640625,-11.71875,30.76171875
1755832700.230847,-45.41015625,-54.6875,-18.5546875,-39.0625
1755832700.2345414,-112.3046875,-58.59375,-21.97265625,-116.69921875
1755832700.238236,-64.94140625,-53.22265625,-9.765625,-51.26953125
1755832700.2419305,22.94921875,-41.015625,0.48828125,49.8046875
1755832700.245625,-13.18359375,-44.43359375,-8.30078125,5.859375
1755832700.2493196,-93.75,-53.22265625,-12.6953125,-90.8203125
1755832700.253014,-76.171875,-51.7578125,-12.20703125,-61.5234375
1755832700.2567086,10.7421875,-53.22265625,-13.671875,43.9453125
1755832700.2604032,9.27734375,-51.7578125,-15.625,28.3203125
1755832700.2640977,-81.0546875,-42.48046875,-17.08984375,-86.9140625
1755832700.2677922,-93.75,-45.41015625,-21.484375,-83.0078125
1755832700.2714868,-23.4375,-52.24609375,-23.92578125,9.27734375
1755832700.2751813,1.46484375,-52.734375,-20.5078125,23.92578125
1755832700.2801158,-74.21875,-48.33984375,-21.484375,-58.59375
1755832700.2850502,-123.046875,-41.50390625,-23.4375,-100.5859375
1755832700.2899847,-52.734375,-45.8984375,-25.87890625,-22.94921875
1755832700.2949193,6.8359375,-55.17578125,-26.85546875,33.69140625
1755832700.2998536,-43.45703125,-56.640625,-34.66796875,-28.3203125
1755832700.304788,-105.46875,-57.6171875,-38.57421875,-85.9375
1755832700.309723,-63.4765625,-54.6875,-36.1328125,-40.52734375
1755832700.314657,-6.8359375,-42.48046875,-31.73828125,22.4609375
1755832700.3195915,-42.96875,-38.0859375,-32.2265625,-23.92578125
1755832700.324526,-115.72265625,-50.29296875,-37.59765625,-107.91015625
1755832700.3294604,-99.609375,-56.640625,-35.15625,-79.1015625
1755832700.334395,-12.20703125,-49.8046875,-35.15625,9.27734375
1755832700.3381517,-6.34765625,-47.8515625,-38.0859375,2.44140625
1755832700.3419082,-86.9140625,-54.19921875,-38.57421875,-92.28515625
1755832700.345665,-104.4921875,-55.17578125,-35.64453125,-104.4921875
1755832700.3494215,-24.4140625,-44.921875,-30.2734375,-4.8828125
1755832700.3531785,13.671875,-39.0625,-24.90234375,34.1796875
1755832700.356935,-57.6171875,-44.43359375,-32.71484375,-57.6171875
1755832700.3606915,-111.328125,-48.33984375,-47.8515625,-114.74609375
1755832700.3644483,-50.78125,-47.36328125,-44.43359375,-33.69140625
1755832700.3682048,10.25390625,-49.31640625,-34.66796875,36.1328125
1755832700.3719616,-32.2265625,-46.875,-33.69140625,-21.484375
1755832700.375718,-99.12109375,-47.8515625,-37.109375,-105.95703125
1755832700.3794749,-72.75390625,-47.36328125,-33.203125,-68.359375
1755832700.383284,13.671875,-44.921875,-26.85546875,32.2265625
1755832700.387093,-5.37109375,-41.9921875,-28.80859375,-4.39453125
1755832700.3909023,-96.6796875,-41.9921875,-33.69140625,-107.91015625
1755832700.3947115,-97.65625,-43.9453125,-34.1796875,-91.30859375
1755832700.3985205,-21.484375,-37.109375,-30.76171875,5.37109375
1755832700.4023297,-2.9296875,-42.96875,-33.69140625,15.13671875
1755832700.406139,-76.66015625,-47.8515625,-42.48046875,-89.84375
1755832700.409948,-114.74609375,-43.9453125,-43.45703125,-120.60546875
1755832700.413757,-36.1328125,-47.36328125,-33.69140625,-18.06640625
1755832700.4175663,14.6484375,-39.0625,-29.78515625,37.59765625
1755832700.4213753,-64.453125,-37.59765625,-38.57421875,-52.734375
1755832700.4251845,-116.2109375,-43.45703125,-45.41015625,-114.2578125
1755832700.4289324,-62.5,-39.55078125,-43.45703125,-35.15625
1755832700.4326806,5.37109375,-34.66796875,-36.62109375,37.59765625
1755832700.4364283,-37.109375,-35.15625,-34.1796875,-25.87890625
1755832700.4401765,-125.48828125,-41.9921875,-44.43359375,-122.0703125
1755832700.443925,-99.609375,-40.52734375,-41.9921875,-84.9609375
1755832700.4476726,-7.32421875,-35.64453125,-26.85546875,25.87890625
1755832700.4514203,-15.625,-37.109375,-26.85546875,7.8125
1755832700.4551687,-103.515625,-41.9921875,-33.203125,-94.7265625
1755832700.458917,-102.5390625,-36.62109375,-32.2265625,-83.0078125
1755832700.4626646,-20.01953125,-35.64453125,-29.78515625,12.6953125
1755832700.4664128,-5.859375,-33.203125,-31.25,21.484375
1755832700.4701607,-88.8671875,-33.69140625,-38.0859375,-70.3125
1755832700.475063,-120.1171875,-39.0625,-36.62109375,-107.421875
1755832700.4799654,-44.921875,-36.1328125,-25.390625,-18.5546875
1755832700.4848678,3.90625,-32.2265625,-20.01953125,36.1328125
1755832700.4897702,-59.5703125,-35.64453125,-28.3203125,-48.33984375
1755832700.4946723,-125.48828125,-39.55078125,-39.0625,-122.0703125
1755832700.4995751,-70.3125,-37.109375,-41.9921875,-59.5703125
1755832700.5044775,-4.39453125,-35.15625,-38.0859375,18.5546875
1755832700.50938,-35.64453125,-38.57421875,-38.57421875,-32.2265625
1755832700.5142822,-105.46875,-42.96875,-45.8984375,-115.234375
1755832700.5191846,-93.75,-42.48046875,-47.36328125,-93.75
1755832700.524087,-11.23046875,-35.64453125,-37.109375,0.48828125
1755832700.5289893,-7.8125,-34.1796875,-37.109375,-6.8359375
1755832700.531553,-90.8203125,-35.15625,-47.36328125,-103.02734375
1755832700.534117,-107.421875,-34.66796875,-46.38671875,-107.91015625
1755832700.5366807,-26.85546875,-38.0859375,-34.1796875,-6.34765625
1755832700.5392444,2.44140625,-35.15625,-27.34375,28.3203125
1755832700.5418084,-65.91796875,-34.66796875,-35.15625,-73.2421875
1755832700.544372,-101.5625,-41.50390625,-46.38671875,-120.1171875
1755832700.5469358,-43.9453125,-38.57421875,-43.45703125,-35.15625
1755832700.5494998,10.7421875,-31.73828125,-40.0390625,31.25
1755832700.5520637,-40.52734375,-38.57421875,-41.9921875,-34.1796875
1755832700.5546272,-110.83984375,-40.0390625,-38.0859375,-118.65234375
1755832700.5571911,-73.73046875,-36.62109375,-35.15625,-60.05859375
1755832700.5597548,4.8828125,-40.52734375,-35.64453125,33.69140625
1755832700.5647345,-12.20703125,-41.50390625,-34.66796875,-8.7890625
1755832700.569714,-98.14453125,-39.55078125,-35.64453125,-111.81640625
1755832700.574694,-88.8671875,-37.59765625,-40.52734375,-92.7734375
1755832700.5796735,-8.30078125,-40.52734375,-44.921875,5.37109375
1755832700.5846531,-8.7890625,-43.9453125,-39.0625,8.30078125
1755832700.589633,-84.9609375,-43.45703125,-37.109375,-89.35546875
1755832700.5946126,-106.4453125,-48.828125,-42.48046875,-110.3515625
1755832700.5995922,-28.3203125,-47.36328125,-38.0859375,-6.8359375
1755832700.6045718,7.8125,-41.9921875,-30.76171875,27.83203125
1755832700.6095514,-60.05859375,-36.1328125,-30.2734375,-58.59375
1755832700.6145313,-104.4921875,-36.62109375,-34.1796875,-94.7265625
1755832700.619511,-52.734375,-42.48046875,-38.0859375,-24.90234375
1755832700.6231503,3.90625,-35.64453125,-37.59765625,26.85546875
1755832700.6267898,-32.71484375,-31.73828125,-36.1328125,-29.296875
1755832700.6304293,-99.609375,-41.9921875,-40.52734375,-105.95703125
1755832700.6340687,-71.77734375,-46.875,-41.50390625,-61.03515625
1755832700.6377082,0.9765625,-45.8984375,-33.203125,18.06640625
1755832700.6413476,-21.97265625,-50.29296875,-31.73828125,-19.53125
1755832700.644987,-102.05078125,-48.828125,-39.0625,-106.93359375
1755832700.6486266,-117.67578125,-47.8515625,-41.9921875,-102.5390625
1755832700.652266,-36.1328125,-43.9453125,-30.76171875,-2.9296875
1755832700.6559055,-8.30078125,-38.0859375,-22.4609375,10.25390625
1755832700.659545,-85.9375,-44.921875,-28.3203125,-80.078125
1755832700.6631844,-122.0703125,-46.38671875,-36.62109375,-112.79296875
1755832700.666936,-60.546875,-38.0859375,-35.64453125,-40.52734375
1755832700.6706874,-8.30078125,-36.62109375,-33.203125,8.7890625
1755832700.674439,-65.4296875,-42.96875,-33.69140625,-57.6171875
1755832700.6781905,-125.9765625,-43.45703125,-36.62109375,-116.69921875
1755832700.681942,-69.82421875,-36.1328125,-34.66796875,-50.78125
1755832700.6856933,7.32421875,-31.73828125,-25.87890625,34.66796875
1755832700.6894448,-26.3671875,-35.64453125,-23.92578125,-14.6484375
1755832700.6931963,-103.02734375,-39.55078125,-29.296875,-101.07421875
1755832700.6969478,-75.1953125,-36.1328125,-33.69140625,-61.03515625
1755832700.700699,7.8125,-40.0390625,-37.109375,33.69140625
1755832700.7044508,0.0,-39.0625,-33.69140625,16.6015625
1755832700.7082024,-92.7734375,-39.55078125,-32.71484375,-88.37890625
1755832700.7156868,-99.12109375,-38.57421875,-32.71484375,-88.8671875
1755832700.7231717,-4.39453125,-38.57421875,-29.78515625,16.6015625
1755832700.730656,3.41796875,-45.8984375,-36.1328125,26.3671875
1755832700.7381406,-77.63671875,-44.921875,-40.52734375,-72.75390625
1755832700.745625,-95.21484375,-43.45703125,-34.1796875,-98.14453125
1755832700.7531097,-24.90234375,-43.9453125,-29.78515625,-3.90625
1755832700.760594,4.8828125,-44.921875,-31.25,37.59765625
1755832700.7680786,-63.96484375,-44.921875,-37.109375,-53.7109375
1755832700.7755632,-118.65234375,-41.50390625,-41.9921875,-120.1171875
1755832700.7830477,-69.82421875,-42.96875,-39.0625,-54.6875
1755832700.7905324,5.859375,-42.96875,-30.2734375,29.296875
1755832700.7980168,-23.92578125,-41.015625,-28.3203125,-14.6484375
1755832700.7982364,-110.83984375,-48.33984375,-35.64453125,-102.5390625
1755832700.7984557,-98.14453125,-46.875,-38.0859375,-76.171875
1755832700.7986753,-15.625,-39.55078125,-38.57421875,10.7421875
1755832700.7988946,-18.06640625,-45.8984375,-38.0859375,-9.765625
1755832700.7991142,-95.703125,-51.7578125,-42.96875,-104.4921875
1755832700.7993336,-101.5625,-51.26953125,-50.78125,-101.5625
1755832700.7995532,-25.87890625,-49.31640625,-46.875,-13.671875
1755832700.7997727,-1.46484375,-45.8984375,-42.48046875,2.44140625
1755832700.799992,-64.94140625,-46.875,-41.50390625,-69.3359375
1755832700.8002117,-120.1171875,-54.19921875,-47.36328125,-119.140625
1755832700.800431,-62.98828125,-46.38671875,-46.875,-55.17578125
1755832700.8006506,0.0,-33.203125,-39.0625,19.04296875
1755832700.8043687,-67.3828125,-38.0859375,-37.109375,-59.08203125
1755832700.8080869,-140.13671875,-44.921875,-39.55078125,-139.6484375
1755832700.8118052,-83.49609375,-41.9921875,-38.0859375,-70.3125
1755832700.8155234,-1.46484375,-38.0859375,-37.59765625,12.6953125
1755832700.8192415,-50.78125,-40.52734375,-45.41015625,-31.25
1755832700.82296,-130.859375,-46.38671875,-49.8046875,-111.328125
1755832700.826678,-105.46875,-51.7578125,-45.8984375,-94.7265625
1755832700.8303962,-32.2265625,-49.8046875,-41.50390625,-10.25390625
1755832700.8341143,-23.92578125,-49.31640625,-39.0625,-3.90625
1755832700.8378325,-98.6328125,-49.8046875,-45.8984375,-91.30859375
1755832700.8415508,-125.0,-42.96875,-49.8046875,-114.2578125
1755832700.845269,-41.9921875,-39.0625,-41.015625,-13.671875
1755832700.8490124,3.41796875,-35.15625,-33.69140625,27.83203125
1755832700.8527558,-71.2890625,-38.57421875,-38.0859375,-64.94140625
1755832700.8564992,-119.62890625,-41.015625,-40.0390625,-116.69921875
1755832700.8602426,-54.19921875,-41.50390625,-33.69140625,-35.64453125
1755832700.863986,5.859375,-39.0625,-27.83203125,28.3203125
1755832700.8677292,-41.50390625,-39.0625,-29.296875,-33.203125
1755832700.8714726,-118.65234375,-41.9921875,-40.0390625,-108.88671875
1755832700.875216,-80.078125,-41.015625,-39.55078125,-52.24609375
1755832700.8789594,2.44140625,-44.43359375,-30.76171875,42.48046875
1755832700.8827028,-22.94921875,-45.8984375,-30.2734375,-3.90625
1755832700.8864462,-94.7265625,-41.015625,-31.73828125,-97.16796875
1755832700.8901896,-87.890625,-44.921875,-35.15625,-79.58984375
1755832700.8939402,-8.30078125,-45.8984375,-35.15625,18.06640625
1755832700.8976903,-2.9296875,-40.0390625,-33.203125,13.18359375
1755832700.901441,-75.68359375,-39.0625,-34.1796875,-87.890625
1755832700.9051917,-103.515625,-42.96875,-37.59765625,-111.328125
1755832700.908942,-35.64453125,-46.875,-35.64453125,-21.484375
1755832700.9126923,12.6953125,-47.8515625,-32.2265625,24.4140625
1755832700.916443,-61.5234375,-41.50390625,-40.52734375,-64.94140625
1755832700.9201934,-109.375,-35.15625,-43.45703125,-107.421875
1755832700.923944,-49.8046875,-35.15625,-38.57421875,-24.90234375
1755832700.9276946,3.41796875,-34.1796875,-31.73828125,26.85546875
1755832700.931445,-42.48046875,-39.0625,-30.2734375,-32.71484375
1755832700.9351954,-122.0703125,-48.33984375,-40.52734375,-125.9765625
1755832700.9390132,-102.05078125,-54.6875,-41.9921875,-89.84375
1755832700.942831,-43.45703125,-52.24609375,-40.52734375,-7.8125
1755832700.9466486,-60.546875,-48.33984375,-46.875,-37.109375
1755832700.9504664,-133.7890625,-52.24609375,-47.36328125,-117.1875
1755832700.9542842,-140.13671875,-53.22265625,-42.96875,-110.3515625
1755832700.958102,-66.89453125,-52.24609375,-41.50390625,-30.2734375
1755832700.9619198,-34.1796875,-43.45703125,-42.96875,-17.08984375
1755832700.9657376,-97.65625,-41.9921875,-49.31640625,-99.12109375
1755832700.9695554,-145.99609375,-42.96875,-53.7109375,-139.6484375
1755832700.973373,-75.1953125,-39.55078125,-48.33984375,-54.19921875
1755832700.9771907,-9.765625,-41.015625,-37.109375,9.765625
1755832700.9810083,-66.40625,-38.0859375,-35.64453125,-57.6171875
1755832700.9846609,-141.6015625,-33.69140625,-42.48046875,-134.765625
1755832700.9883134,-87.890625,-30.76171875,-42.48046875,-74.21875
1755832700.9919658,1.46484375,-29.78515625,-37.59765625,21.484375
1755832700.995618,-33.203125,-30.2734375,-37.59765625,-21.484375
1755832700.999271,-113.28125,-34.66796875,-41.9921875,-112.79296875
1755832701.002923,-93.75,-37.109375,-43.9453125,-81.0546875
1755832701.006575,-1.46484375,-31.25,-37.59765625,24.4140625
1755832701.010228,-4.39453125,-32.71484375,-37.59765625,14.16015625
1755832701.0138805,-102.05078125,-34.1796875,-43.45703125,-104.00390625
1755832701.0175326,-105.95703125,-36.1328125,-42.96875,-106.4453125
1755832701.0211852,-18.06640625,-35.15625,-36.62109375,-2.44140625
1755832701.0248375,10.7421875,-26.3671875,-34.1796875,22.94921875
1755832701.029822,-67.3828125,-23.4375,-39.55078125,-61.03515625
1755832701.0348067,-108.88671875,-29.296875,-40.0390625,-104.4921875
1755832701.039791,-47.8515625,-36.1328125,-38.0859375,-27.83203125
1755832701.044776,8.7890625,-33.203125,-33.203125,30.76171875
1755832701.0497606,-42.48046875,-34.1796875,-34.1796875,-44.43359375
1755832701.0547452,-106.93359375,-36.62109375,-40.52734375,-112.79296875
1755832701.0597298,-57.12890625,-38.57421875,-42.48046875,-43.9453125
1755832701.0647144,12.20703125,-32.2265625,-38.0859375,36.1328125
1755832701.069699,-18.5546875,-26.85546875,-38.0859375,-9.765625
1755832701.0746837,-94.7265625,-32.2265625,-42.96875,-98.6328125
1755832701.0796683,-79.1015625,-35.64453125,-41.9921875,-79.1015625
1755832701.084653,-1.953125,-32.2265625,-36.62109375,11.71875
1755832701.0884428,1.46484375,-26.3671875,-38.0859375,13.18359375
1755832701.0922327,-75.1953125,-28.3203125,-38.57421875,-73.73046875
1755832701.0960228,-93.75,-33.69140625,-37.59765625,-87.40234375
1755832701.0998127,-20.5078125,-33.69140625,-33.203125,0.9765625
1755832701.1036026,13.671875,-33.203125,-29.296875,33.203125
1755832701.1073928,-54.19921875,-35.64453125,-36.1328125,-50.78125
1755832701.1111827,-105.95703125,-32.71484375,-35.64453125,-103.02734375
1755832701.1149726,-48.33984375,-30.2734375,-32.2265625,-29.296875
1755832701.1187625,11.71875,-26.85546875,-28.80859375,30.2734375
1755832701.1225524,-35.64453125,-27.83203125,-30.2734375,-34.66796875
1755832701.1263423,-112.3046875,-37.59765625,-38.0859375,-118.65234375
1755832701.1301324,-73.73046875,-36.1328125,-38.57421875,-73.73046875
1755832701.1339471,5.37109375,-29.78515625,-33.69140625,23.92578125
1755832701.137762,-22.4609375,-32.2265625,-34.1796875,-5.37109375
1755832701.1415768,-109.86328125,-33.69140625,-44.43359375,-103.02734375
1755832701.1453917,-98.14453125,-38.0859375,-47.36328125,-92.28515625
1755832701.1492062,-11.71875,-41.9921875,-37.109375,8.7890625
1755832701.1530209,-4.8828125,-38.57421875,-34.66796875,12.6953125
1755832701.1568358,-85.44921875,-44.921875,-44.921875,-89.84375
1755832701.1606505,-116.2109375,-46.38671875,-46.875,-108.88671875
1755832701.1644652,-32.71484375,-41.015625,-39.0625,-1.46484375
1755832701.16828,20.5078125,-38.57421875,-32.71484375,42.96875
1755832701.1720948,-49.31640625,-31.73828125,-32.71484375,-55.17578125
1755832701.1759095,-101.07421875,-32.71484375,-35.15625,-109.375
1755832701.1797142,-42.96875,-40.52734375,-34.66796875,-33.203125
1755832701.1835191,20.5078125,-36.1328125,-28.80859375,32.2265625
1755832701.187324,-30.76171875,-35.64453125,-32.71484375,-30.76171875
1755832701.1911287,-106.4453125,-41.015625,-42.48046875,-118.65234375
1755832701.1949334,-76.171875,-43.45703125,-42.96875,-67.87109375
1755832701.1987383,2.9296875,-43.9453125,-36.1328125,31.73828125
1755832701.2025433,-7.32421875,-44.921875,-34.1796875,0.48828125
1755832701.206348,-89.35546875,-47.36328125,-36.1328125,-98.14453125
1755832701.2101526,-84.47265625,-44.43359375,-36.1328125,-82.51953125
1755832701.2139575,-2.44140625,-43.9453125,-34.1796875,14.16015625
1755832701.2177625,0.9765625,-44.921875,-30.2734375,6.34765625
1755832701.2215672,-73.73046875,-44.43359375,-34.66796875,-84.47265625
1755832701.2251875,-104.98046875,-44.43359375,-41.015625,-107.421875
1755832701.228808,-37.109375,-40.52734375,-37.109375,-23.92578125
1755832701.232428,6.8359375,-36.1328125,-28.80859375,20.5078125
1755832701.2360485,-52.734375,-35.64453125,-32.71484375,-53.7109375
1755832701.2396688,-103.02734375,-35.15625,-37.109375,-102.05078125
1755832701.243289,-48.828125,-32.71484375,-31.25,-31.73828125
1755832701.2469094,21.484375,-32.2265625,-25.390625,36.1328125
1755832701.2505298,-8.30078125,-30.2734375,-24.90234375,-14.6484375
1755832701.2541502,-80.56640625,-36.62109375,-28.3203125,-91.796875
1755832701.2577703,-79.58984375,-41.9921875,-32.2265625,-68.359375
1755832701.2613907,9.765625,-39.55078125,-27.83203125,17.08984375
1755832701.265011,10.7421875,-35.64453125,-24.90234375,2.44140625
1755832701.2687786,-81.0546875,-41.015625,-28.80859375,-100.09765625
1755832701.272546,-90.8203125,-46.875,-29.296875,-106.4453125
1755832701.2763133,-10.7421875,-34.66796875,-27.83203125,-7.32421875
1755832701.2800808,16.11328125,-30.2734375,-32.2265625,18.5546875
1755832701.2838483,-59.08203125,-39.0625,-39.55078125,-65.91796875
1755832701.2876158,-99.12109375,-39.55078125,-42.96875,-108.3984375
1755832701.2913833,-36.62109375,-38.0859375,-38.57421875,-35.64453125
1755832701.2951508,23.4375,-37.109375,-33.203125,32.71484375
1755832701.2989182,-33.203125,-34.66796875,-34.66796875,-36.1328125
1755832701.3026855,-108.88671875,-34.66796875,-38.0859375,-115.72265625
1755832701.306453,-59.08203125,-34.66796875,-34.66796875,-47.8515625
1755832701.3102205,17.578125,-32.71484375,-29.296875,36.62109375
1755832701.3152196,-16.6015625,-32.71484375,-33.69140625,-16.11328125
1755832701.320219,-93.75,-39.0625,-37.59765625,-114.74609375
1755832701.3252182,-78.61328125,-41.015625,-38.57421875,-82.51953125
1755832701.3302176,6.34765625,-37.59765625,-35.64453125,18.06640625
1755832701.3352168,12.6953125,-40.52734375,-33.69140625,3.41796875
1755832701.3402162,-69.82421875,-40.52734375,-37.59765625,-86.9140625
1755832701.345215,-81.0546875,-33.69140625,-32.71484375,-86.42578125
1755832701.3502145,-1.46484375,-34.66796875,-32.2265625,11.71875
1755832701.355214,22.94921875,-38.57421875,-37.109375,29.78515625
1755832701.360213,-44.921875,-40.0390625,-32.71484375,-60.05859375
1755832701.3652124,-85.44921875,-39.55078125,-30.2734375,-92.28515625
1755832701.3702116,-21.97265625,-37.109375,-28.3203125,-17.08984375
1755832701.3727112,33.203125,-29.296875,-22.94921875,37.59765625
1755832701.3752108,-22.94921875,-30.2734375,-23.4375,-26.3671875
1755832701.37771,-92.28515625,-42.48046875,-32.2265625,-102.5390625
1755832701.3802097,-51.26953125,-41.9921875,-31.73828125,-51.7578125
1755832701.3827093,30.76171875,-38.57421875,-26.85546875,36.62109375
1755832701.3852086,6.8359375,-38.57421875,-29.78515625,0.48828125
1755832701.3877082,-79.58984375,-43.9453125,-36.62109375,-98.14453125
1755832701.3902078,-76.66015625,-45.8984375,-39.0625,-87.890625
1755832701.392707,4.8828125,-41.9921875,-35.15625,7.8125
1755832701.395207,11.23046875,-40.52734375,-35.64453125,4.39453125
1755832701.3977065,-66.40625,-41.50390625,-35.15625,-79.58984375
1755832701.400206,-98.14453125,-47.36328125,-37.109375,-95.21484375
1755832701.4040704,-22.94921875,-41.9921875,-32.2265625,-11.71875
1755832701.407935,30.2734375,-37.59765625,-26.85546875,38.0859375
1755832701.4117994,-40.52734375,-40.52734375,-35.64453125,-49.8046875
1755832701.415664,-105.46875,-39.55078125,-40.0390625,-110.83984375
1755832701.4195285,-50.78125,-40.52734375,-34.66796875,-37.109375
1755832701.4233932,31.25,-32.2265625,-29.296875,41.9921875
1755832701.4272578,-4.8828125,-33.203125,-33.69140625,-11.71875
1755832701.4311223,-95.703125,-48.33984375,-45.41015625,-116.69921875
1755832701.4349868,-69.82421875,-47.8515625,-44.921875,-76.171875
1755832701.4388514,22.4609375,-44.921875,-34.1796875,26.3671875
1755832701.442716,5.37109375,-41.015625,-29.78515625,0.48828125
1755832701.4465804,-86.42578125,-39.55078125,-33.203125,-88.8671875
1755832701.4514005,-85.9375,-41.50390625,-34.66796875,-80.56640625
1755832701.45622,1.46484375,-42.48046875,-32.2265625,15.625
1755832701.46104,15.13671875,-44.43359375,-30.76171875,17.08984375
1755832701.46586,-69.82421875,-49.31640625,-33.69140625,-81.54296875
1755832701.4706798,-104.4921875,-51.26953125,-38.57421875,-106.4453125
1755832701.4754996,-21.484375,-47.8515625,-37.109375,-10.7421875
1755832701.4803195,32.2265625,-42.96875,-39.0625,41.015625
1755832701.4851396,-48.33984375,-41.50390625,-40.52734375,-54.6875
1755832701.4899597,-106.4453125,-39.0625,-35.64453125,-113.28125
1755832701.494779,-41.50390625,-36.1328125,-32.71484375,-42.48046875
1755832701.4995992,31.73828125,-34.66796875,-29.78515625,34.1796875
1755832701.504419,-14.16015625,-35.15625,-32.2265625,-19.04296875
1755832701.5082326,-90.33203125,-35.15625,-36.1328125,-104.00390625
1755832701.5120463,-62.01171875,-34.1796875,-35.15625,-65.91796875
1755832701.5158598,13.671875,-33.203125,-31.73828125,24.90234375
1755832701.5196736,6.8359375,-29.78515625,-31.25,3.90625
1755832701.523487,-66.40625,-34.66796875,-34.66796875,-81.54296875
1755832701.5273008,-77.1484375,-39.0625,-33.203125,-75.68359375
1755832701.5311143,1.953125,-40.0390625,-27.83203125,10.7421875
1755832701.5349278,20.99609375,-41.015625,-27.83203125,16.11328125
1755832701.5387416,-51.7578125,-33.69140625,-29.78515625,-66.40625
1755832701.542555,-77.63671875,-35.15625,-34.66796875,-89.35546875
1755832701.5463688,-20.99609375,-37.59765625,-40.0390625,-26.3671875
1755832701.5501823,25.390625,-35.64453125,-34.66796875,21.484375
1755832701.5539358,-31.73828125,-35.64453125,-32.2265625,-47.36328125
1755832701.5576892,-104.00390625,-44.921875,-39.0625,-121.09375
1755832701.5614429,-68.84765625,-50.78125,-37.59765625,-67.87109375
1755832701.5651965,8.7890625,-41.9921875,-25.390625,19.53125
1755832701.5689497,-21.97265625,-44.43359375,-27.34375,-22.94921875
1755832701.5727034,-102.5390625,-47.36328125,-34.1796875,-114.74609375
1755832701.5764568,-86.42578125,-42.96875,-32.2265625,-83.49609375
1755832701.5802102,-7.32421875,-37.109375,-26.85546875,5.37109375
1755832701.5839636,0.0,-33.69140625,-23.92578125,10.25390625
1755832701.587717,-83.984375,-35.15625,-27.83203125,-81.0546875
1755832701.5914707,-111.328125,-37.59765625,-32.2265625,-108.3984375
1755832701.595224,-22.4609375,-35.64453125,-26.3671875,-15.13671875
1755832701.599089,22.4609375,-33.203125,-23.92578125,17.578125
1755832701.602954,-57.6171875,-38.57421875,-33.69140625,-69.3359375
1755832701.606819,-108.88671875,-43.45703125,-37.109375,-115.234375
1755832701.6106834,-38.0859375,-38.57421875,-31.73828125,-30.2734375
1755832701.6145484,23.4375,-33.69140625,-28.3203125,37.109375
1755832701.6184132,-37.109375,-39.55078125,-34.1796875,-31.73828125
1755832701.622278,-107.91015625,-41.015625,-39.0625,-108.88671875
1755832701.626143,-66.40625,-39.0625,-34.66796875,-56.15234375
1755832701.6300075,16.11328125,-42.96875,-30.2734375,35.64453125
1755832701.6338725,-5.37109375,-37.109375,-29.296875,0.0
1755832701.6377375,-86.9140625,-39.0625,-37.59765625,-94.7265625
1755832701.6416025,-75.1953125,-41.9921875,-41.015625,-78.61328125
1755832701.645314,12.20703125,-34.1796875,-34.1796875,18.06640625
1755832701.6490254,18.06640625,-32.2265625,-32.71484375,12.20703125
1755832701.6527371,-64.453125,-33.69140625,-36.1328125,-81.54296875
1755832701.6564488,-87.890625,-40.0390625,-38.57421875,-91.30859375
1755832701.6601603,-14.6484375,-45.8984375,-28.3203125,0.48828125
1755832701.6638722,28.3203125,-38.57421875,-20.5078125,40.52734375
1755832701.6675837,-43.9453125,-34.66796875,-24.4140625,-45.8984375
1755832701.6712954,-103.02734375,-35.64453125,-31.73828125,-97.65625
1755832701.675007,-53.22265625,-39.55078125,-33.69140625,-26.85546875
1755832701.6787186,10.7421875,-38.0859375,-27.83203125,28.80859375
1755832701.6824305,-17.578125,-26.85546875,-24.4140625,-26.3671875
1755832701.686142,-91.796875,-30.2734375,-25.87890625,-104.4921875
1755832701.689759,-62.01171875,-30.2734375,-20.01953125,-57.6171875
1755832701.693376,21.484375,-26.3671875,-14.6484375,31.73828125
1755832701.696993,4.8828125,-28.3203125,-20.01953125,0.9765625
1755832701.7006102,-79.58984375,-34.66796875,-25.390625,-86.42578125
1755832701.7042272,-85.44921875,-40.52734375,-27.83203125,-83.984375
1755832701.7078445,-5.37109375,-37.59765625,-23.92578125,5.859375
1755832701.7114613,7.32421875,-38.0859375,-22.94921875,15.13671875
1755832701.7150784,-71.77734375,-42.48046875,-30.2734375,-70.3125
1755832701.7186954,-116.2109375,-47.36328125,-39.0625,-106.4453125
1755832701.7223125,-48.828125,-44.43359375,-36.62109375,-32.2265625
1755832701.7259295,7.8125,-36.1328125,-30.76171875,20.01953125
1755832701.7295463,-58.10546875,-40.0390625,-35.64453125,-65.4296875
1755832701.7345638,-115.234375,-44.921875,-39.55078125,-126.46484375
1755832701.739581,-53.22265625,-48.828125,-38.57421875,-55.17578125
1755832701.7445984,18.06640625,-49.31640625,-35.64453125,20.5078125
1755832701.749616,-23.4375,-48.828125,-37.59765625,-33.69140625
1755832701.7546332,-95.703125,-47.36328125,-40.0390625,-108.88671875
1755832701.7596505,-68.359375,-42.96875,-36.62109375,-64.94140625
1755832701.7646675,16.11328125,-43.45703125,-33.69140625,29.78515625
1755832701.769685,5.37109375,-37.109375,-34.1796875,11.71875
1755832701.7747023,-94.23828125,-33.203125,-41.015625,-102.05078125
1755832701.7797198,-105.46875,-43.45703125,-45.8984375,-106.93359375
1755832701.784737,-15.625,-41.9921875,-38.57421875,-10.25390625
1755832701.7897544,13.18359375,-35.15625,-33.69140625,11.23046875
1755832701.7934587,-62.5,-34.1796875,-38.57421875,-80.56640625
1755832701.7971632,-102.05078125,-39.0625,-45.8984375,-108.3984375
1755832701.8008676,-34.66796875,-44.43359375,-43.9453125,-16.6015625
1755832701.804572,18.06640625,-40.0390625,-38.57421875,32.2265625
1755832701.8082764,-34.66796875,-40.0390625,-39.0625,-42.48046875
1755832701.8119807,-92.28515625,-36.62109375,-41.015625,-104.98046875
1755832701.8156853,-43.9453125,-31.25,-39.55078125,-49.8046875
1755832701.8193896,22.94921875,-38.57421875,-35.15625,26.3671875
1755832701.823094,-10.7421875,-37.59765625,-37.109375,-12.20703125
1755832701.8267984,-75.68359375,-36.1328125,-47.8515625,-99.609375
1755832701.830503,-51.26953125,-46.38671875,-48.33984375,-67.3828125
1755832701.8342073,17.578125,-46.38671875,-39.0625,16.6015625
1755832701.8380313,18.5546875,-38.57421875,-32.71484375,-1.953125
1755832701.8418555,-61.03515625,-36.1328125,-34.1796875,-85.44921875
1755832701.8456798,-84.9609375,-38.0859375,-34.66796875,-86.9140625
1755832701.8495038,-5.37109375,-37.109375,-34.66796875,3.90625
1755832701.8533278,28.3203125,-37.109375,-38.57421875,24.4140625
1755832701.857152,-45.8984375,-46.875,-41.9921875,-52.24609375
1755832701.8609762,-97.16796875,-51.26953125,-49.8046875,-102.5390625
1755832701.8648002,-38.57421875,-52.24609375,-47.36328125,-42.48046875
1755832701.8686242,17.578125,-50.29296875,-40.0390625,22.4609375
1755832701.8724484,-31.73828125,-44.43359375,-41.9921875,-38.0859375
1755832701.876273,-100.09765625,-44.43359375,-45.41015625,-110.3515625
1755832701.880097,-58.59375,-45.41015625,-38.57421875,-55.17578125
1755832701.8838634,19.53125,-45.8984375,-34.66796875,31.73828125
1755832701.8876302,-11.23046875,-41.50390625,-39.55078125,-10.7421875
1755832701.891397,-95.21484375,-42.96875,-46.875,-108.3984375
1755832701.8951635,-86.9140625,-47.36328125,-47.36328125,-80.56640625
1755832701.8989303,-3.41796875,-41.50390625,-37.109375,21.97265625
1755832701.902697,9.27734375,-33.69140625,-30.76171875,20.99609375
1755832701.906464,-70.80078125,-37.59765625,-36.1328125,-78.61328125
1755832701.9102306,-92.28515625,-43.9453125,-40.52734375,-98.6328125
1755832701.9139972,-11.71875,-48.828125,-36.62109375,0.0
1755832701.917764,25.87890625,-52.24609375,-34.66796875,42.48046875
1755832701.9215307,-41.50390625,-44.43359375,-36.1328125,-47.36328125
1755832701.9252975,-93.26171875,-42.96875,-39.55078125,-101.5625
1755832701.92898,-30.2734375,-44.921875,-38.57421875,-25.390625
1755832701.932663,36.1328125,-40.0390625,-35.64453125,41.9921875
1755832701.9363456,-15.625,-38.0859375,-36.1328125,-19.53125
1755832701.9400282,-87.890625,-40.0390625,-41.015625,-94.23828125
1755832701.943711,-50.78125,-43.45703125,-41.50390625,-37.59765625
1755832701.9473937,24.4140625,-42.96875,-34.1796875,43.45703125
1755832701.9510765,5.37109375,-34.66796875,-34.66796875,2.9296875
1755832701.9547591,-80.078125,-38.57421875,-36.1328125,-93.75
1755832701.9584415,-81.54296875,-47.8515625,-35.64453125,-81.0546875
1755832701.9621243,0.0,-47.36328125,-33.69140625,11.71875
1755832701.9658072,6.8359375,-40.0390625,-31.73828125,13.18359375
1755832701.9694898,-73.73046875,-38.57421875,-34.1796875,-75.68359375
1755832701.9732685,-107.421875,-40.0390625,-33.203125,-106.4453125
1755832701.977047,-38.57421875,-42.48046875,-31.25,-20.99609375
1755832701.9808257,4.39453125,-47.8515625,-31.73828125,25.87890625
1755832701.984604,-58.10546875,-44.921875,-29.78515625,-53.7109375
1755832701.9883828,-104.98046875,-47.8515625,-35.15625,-102.5390625
1755832701.9921613,-48.828125,-48.828125,-34.66796875,-28.80859375
1755832701.99594,13.18359375,-47.8515625,-32.2265625,30.2734375
1755832701.999719,-18.06640625,-53.22265625,-37.59765625,-24.90234375
1755832702.0034971,-83.984375,-56.640625,-42.48046875,-96.19140625
1755832702.0072758,-66.89453125,-52.24609375,-42.96875,-63.4765625
1755832702.0110545,12.6953125,-37.109375,-32.71484375,20.5078125
1755832702.014833,9.27734375,-31.25,-31.25,6.8359375
1755832702.018613,-73.2421875,-37.59765625,-38.0859375,-79.1015625
1755832702.0223937,-75.68359375,-41.015625,-34.1796875,-76.171875
1755832702.026174,6.8359375,-41.9921875,-28.80859375,15.625
