timestamps,eeg_1,eeg_2,eeg_3,eeg_4
1755739232.3922586,-73.2421875,-73.2421875,-4.39453125,-81.0546875
1755739232.3961372,-63.96484375,-62.01171875,-35.64453125,-77.63671875
1755739232.4000158,-33.69140625,-66.89453125,-25.390625,-59.5703125
1755739232.4038944,-33.203125,-72.75390625,-4.8828125,-51.26953125
1755739232.407773,-73.2421875,-48.33984375,-19.53125,-72.265625
1755739232.4116516,-67.87109375,-40.0390625,-12.6953125,-73.2421875
1755739232.4155302,-29.78515625,-30.2734375,2.44140625,-39.0625
1755739232.4194088,-31.73828125,-17.08984375,9.27734375,-43.45703125
1755739232.4232874,-58.10546875,-19.53125,9.27734375,-78.61328125
1755739232.427166,-64.453125,-49.31640625,-10.25390625,-88.8671875
1755739232.4310446,-58.10546875,-69.3359375,-30.2734375,-84.47265625
1755739232.4349232,-47.8515625,-53.22265625,-32.71484375,-76.171875
1755739232.438542,-63.4765625,-48.828125,-26.3671875,-76.171875
1755739232.442161,-81.54296875,-39.55078125,-24.4140625,-67.3828125
1755739232.44578,-51.26953125,-57.6171875,-41.015625,-65.91796875
1755739232.449399,-26.3671875,-70.80078125,-41.9921875,-59.08203125
1755739232.453018,-42.96875,-48.33984375,-24.4140625,-51.7578125
1755739232.456637,-65.4296875,-58.10546875,-17.08984375,-78.61328125
1755739232.460256,-58.59375,-60.05859375,-16.11328125,-76.66015625
1755739232.463875,-30.76171875,-41.9921875,-26.3671875,-50.78125
1755739232.467494,-30.76171875,-45.8984375,-25.390625,-46.38671875
1755739232.471113,-58.59375,-48.33984375,-28.3203125,-72.75390625
1755739232.474732,-62.01171875,-53.22265625,-48.828125,-79.1015625
1755739232.4783509,-41.015625,-46.38671875,-42.48046875,-58.59375
1755739232.4832785,-39.55078125,-22.94921875,-13.671875,-52.24609375
1755739232.4882057,-54.19921875,-34.66796875,-3.90625,-63.96484375
1755739232.493133,-65.4296875,-88.37890625,-20.99609375,-74.21875
1755739232.4980602,-62.98828125,-107.421875,-38.57421875,-68.84765625
1755739232.5029876,-52.734375,-40.52734375,-29.296875,-52.734375
1755739232.507915,-71.2890625,-21.97265625,-22.94921875,-63.4765625
1755739232.5128424,-81.54296875,-33.69140625,-33.203125,-76.171875
1755739232.5177698,-61.03515625,-24.90234375,-33.69140625,-80.078125
1755739232.522697,-50.29296875,-30.76171875,-25.87890625,-66.89453125
1755739232.5276244,-61.03515625,-50.78125,-11.71875,-60.05859375
1755739232.5325518,-72.75390625,-44.43359375,3.90625,-70.3125
1755739232.5374792,-53.22265625,-39.0625,-4.8828125,-66.40625
1755739232.5412638,-30.76171875,-64.453125,-12.6953125,-57.6171875
1755739232.5450485,-40.0390625,-74.70703125,-1.46484375,-55.6640625
1755739232.5488331,-56.15234375,-62.01171875,8.30078125,-63.96484375
1755739232.5526178,-70.80078125,-56.15234375,-15.13671875,-67.87109375
1755739232.5564024,-54.19921875,-59.08203125,-28.3203125,-53.22265625
1755739232.5601869,-26.3671875,-54.19921875,1.46484375,-36.1328125
1755739232.5639715,-37.59765625,-49.31640625,6.34765625,-50.78125
1755739232.5677562,-60.546875,-44.43359375,-13.18359375,-70.3125
1755739232.5715408,-64.94140625,-43.9453125,-13.671875,-83.984375
1755739232.5753255,-41.015625,-44.921875,-1.953125,-55.17578125
1755739232.57911,-41.50390625,-50.78125,-2.9296875,-47.36328125
1755739232.5828948,-57.12890625,-60.546875,-18.06640625,-75.1953125
1755739232.5867047,-44.43359375,-47.36328125,-23.92578125,-65.91796875
1755739232.5905144,-32.71484375,-39.0625,-20.01953125,-44.43359375
1755739232.5943244,-29.78515625,-62.5,-13.18359375,-38.57421875
1755739232.5981345,-33.203125,-62.98828125,-23.92578125,-57.6171875
1755739232.601944,-26.85546875,-50.29296875,-39.55078125,-52.734375
1755739232.605754,0.0,-68.359375,-39.55078125,-16.6015625
1755739232.6095638,12.6953125,-68.359375,-44.921875,-0.48828125
1755739232.6133735,-2.9296875,-47.36328125,-42.96875,-16.6015625
1755739232.6171834,-16.11328125,-52.734375,-39.0625,-23.4375
1755739232.6209934,15.13671875,-65.4296875,-40.0390625,-1.953125
1755739232.624803,34.66796875,-41.015625,-32.71484375,12.20703125
1755739232.628613,18.06640625,-41.9921875,-24.4140625,7.32421875
1755739232.632372,10.7421875,-61.03515625,-22.4609375,-6.34765625
1755739232.6361306,30.76171875,-49.8046875,-18.06640625,-8.7890625
1755739232.6398892,43.9453125,-58.10546875,-17.08984375,6.34765625
1755739232.643648,10.25390625,-60.05859375,-24.4140625,-2.44140625
1755739232.647407,1.46484375,-78.61328125,-25.87890625,-10.7421875
1755739232.6511655,21.484375,-110.83984375,-18.06640625,-4.8828125
1755739232.6549244,32.2265625,-79.1015625,-4.8828125,-2.9296875
1755739232.6586833,9.27734375,-39.55078125,-15.625,-14.6484375
1755739232.6624422,-21.484375,-25.390625,-31.73828125,-33.69140625
1755739232.6662009,-19.04296875,-23.92578125,-20.99609375,-43.45703125
1755739232.6699595,1.46484375,-28.3203125,-1.46484375,-26.85546875
1755739232.6737185,3.90625,-35.64453125,-5.859375,-14.6484375
1755739232.6774387,-16.6015625,-60.546875,-15.13671875,-39.0625
1755739232.6811588,-28.80859375,-87.890625,-9.27734375,-47.8515625
1755739232.684879,-17.08984375,-103.02734375,-23.92578125,-39.0625
1755739232.688599,5.859375,-77.63671875,-38.0859375,-27.34375
1755739232.6923194,-19.53125,-48.828125,-28.3203125,-26.3671875
1755739232.6960397,-50.29296875,-47.36328125,-22.94921875,-52.24609375
1755739232.69976,-28.80859375,-44.921875,-30.2734375,-54.19921875
1755739232.70348,-6.8359375,-57.12890625,-30.76171875,-28.80859375
1755739232.7072003,-4.39453125,-43.9453125,-7.8125,-10.25390625
1755739232.7109206,-16.11328125,-30.76171875,3.41796875,-19.53125
1755739232.7146406,-14.16015625,-44.921875,4.8828125,-37.109375
1755739232.718361,-12.6953125,-73.73046875,9.27734375,-33.203125
1755739232.7231967,-26.85546875,-62.98828125,0.9765625,-35.64453125
1755739232.7280326,-50.78125,-35.15625,-8.7890625,-56.640625
1755739232.7328682,-49.8046875,-26.3671875,-10.25390625,-59.08203125
1755739232.737704,-27.83203125,-39.55078125,-5.37109375,-36.1328125
1755739232.74254,-28.80859375,-52.734375,-3.41796875,-35.15625
1755739232.7473755,-41.015625,-60.05859375,-21.484375,-52.734375
1755739232.752211,-41.9921875,-67.3828125,-22.4609375,-49.31640625
1755739232.7570472,-30.76171875,-57.12890625,-15.13671875,-26.85546875
1755739232.761883,-23.4375,-38.57421875,-10.7421875,-22.94921875
1755739232.7667189,-35.64453125,-24.4140625,-11.71875,-46.875
1755739232.7715545,-44.43359375,-37.109375,-20.01953125,-57.12890625
1755739232.7763903,-34.66796875,-68.84765625,-10.25390625,-49.8046875
1755739232.77907,-24.4140625,-67.87109375,-7.8125,-45.8984375
1755739232.7817495,-41.50390625,-49.8046875,-20.01953125,-60.546875
1755739232.7844296,-47.36328125,-49.31640625,-20.01953125,-71.2890625
1755739232.7871094,-29.78515625,-51.7578125,-18.06640625,-76.171875
1755739232.789789,-17.08984375,-53.22265625,-18.06640625,-45.41015625
1755739232.7924688,-0.48828125,-46.875,-9.27734375,-8.30078125
1755739232.7951486,-21.484375,-37.59765625,-3.41796875,-38.57421875
1755739232.7978282,-61.03515625,-36.1328125,-2.9296875,-83.984375
1755739232.800508,-59.5703125,-46.38671875,-6.8359375,-83.49609375
1755739232.8031878,-43.45703125,-60.546875,-8.7890625,-61.03515625
1755739232.8058674,-76.171875,-78.61328125,-22.94921875,-70.3125
1755739232.8085473,-92.28515625,-82.51953125,-35.15625,-93.75
1755739232.8123002,-54.6875,-61.03515625,-21.484375,-85.44921875
1755739232.8160532,-51.26953125,-49.31640625,-20.99609375,-74.70703125
1755739232.819806,-68.359375,-64.453125,-20.01953125,-79.1015625
1755739232.823559,-70.80078125,-81.54296875,-10.25390625,-85.9375
1755739232.827312,-60.05859375,-58.10546875,-11.23046875,-78.61328125
1755739232.8310647,-47.8515625,-30.76171875,-16.6015625,-64.94140625
1755739232.8348176,-69.82421875,-33.203125,-26.3671875,-74.21875
1755739232.8385706,-79.58984375,-32.2265625,-16.6015625,-86.42578125
1755739232.8423235,-62.01171875,-50.29296875,-9.765625,-81.54296875
1755739232.8460765,-31.73828125,-62.98828125,-16.6015625,-54.6875
1755739232.8498294,-31.25,-47.8515625,-1.46484375,-41.015625
1755739232.8535824,-57.6171875,-33.203125,-2.44140625,-71.77734375
1755739232.8574417,-62.98828125,-20.01953125,-16.11328125,-87.890625
1755739232.861301,-51.26953125,-33.69140625,-7.8125,-70.3125
1755739232.8651602,-36.62109375,-62.01171875,0.9765625,-55.6640625
1755739232.8690195,-61.5234375,-64.453125,-8.30078125,-73.2421875
1755739232.8728788,-81.54296875,-45.41015625,-10.7421875,-91.796875
1755739232.876738,-53.22265625,-36.62109375,-11.23046875,-70.80078125
1755739232.880597,-24.90234375,-58.10546875,-16.6015625,-40.52734375
1755739232.8844564,-47.8515625,-55.6640625,-12.6953125,-48.828125
1755739232.8883157,-70.80078125,-44.921875,-19.53125,-80.56640625
1755739232.892175,-47.8515625,-50.78125,-20.99609375,-76.66015625
1755739232.8960342,-40.52734375,-41.015625,-7.8125,-49.8046875
1755739232.8998935,-51.26953125,-26.3671875,10.25390625,-51.7578125
1755739232.9047165,-70.80078125,-24.4140625,8.7890625,-80.56640625
1755739232.9095387,-83.984375,-25.87890625,-7.8125,-105.46875
1755739232.9143617,-82.51953125,-23.4375,-0.9765625,-101.5625
1755739232.9191842,-91.796875,-13.671875,-1.46484375,-97.65625
1755739232.924007,-115.72265625,-16.11328125,-14.6484375,-130.859375
1755739232.9288297,-137.6953125,-45.8984375,-23.4375,-162.109375
1755739232.9336522,-133.7890625,-46.875,-26.85546875,-154.78515625
1755739232.938475,-140.13671875,-11.71875,-32.71484375,-159.66796875
1755739232.9432976,-174.8046875,-8.30078125,-39.0625,-202.63671875
1755739232.94812,-209.9609375,-70.80078125,-24.4140625,-236.81640625
1755739232.9529428,-208.0078125,-58.10546875,-1.46484375,-230.95703125
1755739232.9577656,-208.984375,26.3671875,-27.34375,-223.14453125
1755739232.9628184,-247.0703125,28.80859375,-47.36328125,-255.859375
1755739232.9678712,-263.671875,4.8828125,-7.32421875,-284.1796875
1755739232.972924,-254.39453125,-3.90625,40.0390625,-269.53125
1755739232.9779768,-230.95703125,-42.48046875,42.96875,-248.53515625
1755739232.9830296,-225.09765625,-58.59375,16.6015625,-237.3046875
1755739232.9880824,-226.5625,-30.2734375,22.94921875,-236.81640625
1755739232.9931352,-214.35546875,-7.8125,26.85546875,-236.328125
1755739232.998188,-187.5,14.16015625,21.484375,-204.1015625
1755739233.0032408,-179.6875,18.5546875,26.3671875,-184.5703125
1755739233.0082936,-195.3125,-26.3671875,23.92578125,-192.3828125
1755739233.0133464,-186.5234375,-41.015625,31.73828125,-189.94140625
1755739233.0183992,-157.71484375,-11.71875,25.390625,-170.8984375
1755739233.020918,-132.8125,-26.85546875,-3.41796875,-148.4375
1755739233.0234368,-138.671875,-46.875,-2.44140625,-140.13671875
1755739233.0259557,-138.671875,-55.17578125,24.4140625,-143.5546875
1755739233.0284743,-98.6328125,-31.73828125,24.4140625,-122.0703125
1755739233.030993,-90.33203125,-2.9296875,5.37109375,-104.4921875
1755739233.033512,-108.3984375,-15.625,-3.90625,-98.6328125
1755739233.0360308,-99.609375,-50.29296875,-15.13671875,-103.02734375
1755739233.0385494,-84.9609375,-70.3125,-13.671875,-116.2109375
1755739233.041068,-73.73046875,-43.9453125,8.7890625,-89.84375
1755739233.043587,-83.0078125,-13.671875,20.99609375,-81.54296875
1755739233.046106,-103.515625,-24.4140625,12.20703125,-100.5859375
1755739233.0486245,-89.35546875,-36.62109375,-7.8125,-92.28515625
1755739233.052378,-62.5,-37.109375,-22.4609375,-77.63671875
1755739233.0561314,-56.15234375,-64.453125,-29.296875,-58.10546875
1755739233.0598848,-64.453125,-44.921875,-24.90234375,-63.4765625
1755739233.0636382,-59.08203125,-22.94921875,-22.94921875,-71.2890625
1755739233.0673916,-33.203125,-43.9453125,-9.27734375,-51.26953125
1755739233.071145,-17.578125,-49.31640625,15.13671875,-33.69140625
1755739233.0748987,-43.45703125,-48.33984375,7.32421875,-54.19921875
1755739233.078652,-48.828125,-46.38671875,-9.27734375,-71.2890625
1755739233.0824056,-13.671875,-46.875,1.46484375,-34.1796875
1755739233.086159,-4.8828125,-49.8046875,1.953125,-12.6953125
1755739233.0899124,-11.23046875,-39.0625,-11.23046875,-20.5078125
1755739233.0936658,-3.41796875,-34.66796875,-10.7421875,-25.87890625
1755739233.0985053,-13.671875,-48.828125,-13.671875,-30.2734375
1755739233.103345,-13.671875,-55.17578125,-24.90234375,-22.94921875
1755739233.1081843,9.27734375,-43.9453125,-32.2265625,-11.23046875
1755739233.1130238,1.953125,-44.43359375,-16.6015625,-23.4375
1755739233.1178632,4.39453125,-62.5,9.765625,-30.76171875
1755739233.1227026,5.859375,-35.15625,6.34765625,-18.5546875
1755739233.1275425,-2.9296875,-21.484375,-14.16015625,-10.7421875
1755739233.1323817,4.39453125,-39.55078125,-23.92578125,-7.32421875
1755739233.137221,-5.37109375,-56.15234375,-19.04296875,-0.9765625
1755739233.1420608,34.1796875,-62.01171875,10.7421875,6.34765625
1755739233.1469002,43.9453125,-45.41015625,21.484375,21.97265625
1755739233.1517396,-2.44140625,-40.52734375,-7.32421875,6.34765625
1755739233.154389,-16.6015625,-50.29296875,-23.92578125,-18.06640625
1755739233.1570382,-9.27734375,-39.55078125,-35.64453125,-2.44140625
1755739233.1596875,10.7421875,-25.87890625,-49.8046875,16.11328125
1755739233.162337,7.32421875,-36.62109375,-35.15625,10.7421875
1755739233.1649864,-16.6015625,-63.96484375,-2.44140625,-14.6484375
1755739233.1676357,-11.23046875,-86.9140625,-8.30078125,-17.578125
1755739233.170285,20.99609375,-71.2890625,-28.3203125,4.39453125
1755739233.1729343,21.484375,-49.31640625,-25.390625,1.953125
1755739233.1755838,-13.671875,-54.6875,-20.99609375,-26.3671875
1755739233.1782331,-15.625,-53.7109375,-18.5546875,-29.296875
1755739233.1808825,15.625,-48.828125,-29.296875,-0.48828125
1755739233.1835318,30.2734375,-41.015625,-32.71484375,7.8125
1755739233.1885257,-5.37109375,-36.1328125,-39.55078125,-14.6484375
1755739233.1935198,-21.484375,-42.48046875,-53.22265625,-20.01953125
1755739233.1985135,11.71875,-65.4296875,-45.8984375,-11.71875
1755739233.2035077,15.625,-83.0078125,-45.41015625,0.48828125
1755739233.2085018,-7.8125,-63.96484375,-33.69140625,-10.7421875
1755739233.2134955,-21.484375,-48.828125,-19.04296875,-52.734375
1755739233.2184896,-21.97265625,-47.36328125,-18.5546875,-44.921875
1755739233.2234838,-8.7890625,-43.45703125,-23.4375,-22.4609375
1755739233.2284777,-11.23046875,-55.6640625,-35.64453125,-33.203125
1755739233.2334716,-30.76171875,-38.57421875,-40.52734375,-41.9921875
1755739233.2384658,-24.4140625,-38.57421875,-47.8515625,-48.33984375
1755739233.2434597,-17.578125,-64.453125,-41.50390625,-39.55078125
1755739233.2471058,-21.484375,-58.59375,-35.15625,-24.4140625
1755739233.2507515,-29.296875,-60.546875,-39.0625,-41.9921875
1755739233.254398,-36.62109375,-79.1015625,-37.109375,-57.12890625
1755739233.258044,-17.08984375,-89.84375,-32.2265625,-42.96875
1755739233.26169,4.8828125,-43.9453125,-19.04296875,-29.296875
1755739233.265336,-1.46484375,-22.94921875,-21.97265625,-34.66796875
1755739233.2689822,-21.97265625,-25.87890625,-35.64453125,-46.875
1755739233.272628,-24.90234375,-24.4140625,-49.8046875,-53.22265625
1755739233.2762742,-4.8828125,-39.55078125,-43.45703125,-40.52734375
1755739233.2799203,-12.20703125,-56.640625,-39.0625,-25.390625
1755739233.2835662,-37.109375,-66.89453125,-57.6171875,-44.43359375
1755739233.2872124,-44.43359375,-71.2890625,-58.10546875,-69.82421875
1755739233.291034,-37.109375,-83.984375,-34.66796875,-50.29296875
1755739233.2948556,-18.06640625,-60.05859375,-17.578125,-25.87890625
1755739233.2986772,-14.6484375,-41.9921875,-31.25,-26.85546875
1755739233.3024988,-14.16015625,-36.1328125,-36.1328125,-46.875
1755739233.3063204,-51.26953125,-25.87890625,-21.97265625,-85.9375
1755739233.310142,-85.9375,-53.7109375,-33.69140625,-88.37890625
1755739233.313964,-97.16796875,-82.03125,-43.9453125,-102.05078125
1755739233.3177855,-103.515625,-90.8203125,-31.73828125,-124.51171875
1755739233.321607,-74.70703125,-98.6328125,-30.76171875,-104.00390625
1755739233.3254287,-78.61328125,-77.1484375,-33.203125,-105.46875
1755739233.3292503,-112.3046875,-38.57421875,-40.0390625,-136.71875
1755739233.333072,-142.578125,-36.62109375,-38.0859375,-159.66796875
1755739233.3368342,-145.01953125,-41.9921875,-31.73828125,-157.2265625
1755739233.3405964,-135.25390625,-60.546875,-40.0390625,-162.109375
1755739233.3443587,-137.6953125,-77.1484375,-23.4375,-166.50390625
1755739233.348121,-148.4375,-66.40625,-13.18359375,-153.80859375
1755739233.3518832,-133.30078125,-66.89453125,-0.9765625,-140.13671875
1755739233.3556457,-88.8671875,-65.4296875,-2.44140625,-117.1875
1755739233.359408,-103.515625,-34.1796875,-47.36328125,-122.55859375
1755739233.36317,-136.71875,-28.3203125,-55.6640625,-143.06640625
1755739233.3669324,-127.44140625,-60.05859375,-38.0859375,-136.71875
1755739233.3706946,-107.91015625,-53.22265625,-42.96875,-115.234375
1755739233.374457,-87.40234375,-45.41015625,-43.45703125,-97.16796875
1755739233.3782191,-80.56640625,-55.6640625,-34.1796875,-84.47265625
1755739233.381985,-90.33203125,-65.91796875,-50.78125,-96.19140625
1755739233.3857508,-58.59375,-59.5703125,-42.96875,-95.703125
1755739233.3895166,-36.62109375,-40.0390625,-27.34375,-71.2890625
1755739233.3932824,-55.6640625,-34.66796875,-37.59765625,-67.3828125
1755739233.3970482,-74.70703125,-33.203125,-47.36328125,-82.03125
1755739233.400814,-65.91796875,-54.6875,-33.203125,-80.56640625
1755739233.4045796,-39.0625,-59.08203125,-15.625,-69.82421875
1755739233.4083457,-41.9921875,-66.89453125,-21.97265625,-63.4765625
1755739233.4121113,-72.265625,-71.2890625,-46.875,-67.87109375
1755739233.415877,-77.63671875,-44.921875,-44.43359375,-70.80078125
1755739233.419643,-49.31640625,-32.2265625,-12.6953125,-68.359375
1755739233.4234087,-38.0859375,-40.0390625,-19.53125,-66.89453125
1755739233.4271717,-53.22265625,-60.546875,-36.62109375,-58.10546875
1755739233.4309344,-62.01171875,-59.5703125,-34.1796875,-69.3359375
1755739233.4346974,-42.96875,-62.5,-27.83203125,-66.89453125
1755739233.4384604,-40.52734375,-61.03515625,-33.69140625,-49.8046875
1755739233.442223,-55.17578125,-44.43359375,-37.59765625,-59.5703125
1755739233.445986,-56.640625,-46.38671875,-35.15625,-62.5
1755739233.449749,-36.1328125,-55.6640625,-33.69140625,-56.640625
1755739233.4535117,-24.90234375,-66.89453125,-33.203125,-50.29296875
1755739233.457275,-36.62109375,-81.0546875,-25.390625,-40.0390625
1755739233.4610376,-57.12890625,-46.875,-17.578125,-54.6875
1755739233.4648004,-60.05859375,-23.4375,-25.390625,-53.7109375
1755739233.4685633,-40.52734375,-55.17578125,-28.80859375,-32.2265625
1755739233.473554,-33.203125,-60.546875,-25.390625,-41.015625
1755739233.4785447,-49.31640625,-51.7578125,-30.2734375,-49.31640625
1755739233.4835355,-45.41015625,-51.7578125,-34.66796875,-66.40625
1755739233.488526,-22.94921875,-68.359375,-21.97265625,-62.98828125
1755739233.493517,-9.765625,-41.9921875,-20.5078125,-35.15625
1755739233.4985075,-28.80859375,-14.6484375,-38.57421875,-40.0390625
1755739233.5034983,-43.45703125,-22.4609375,-51.26953125,-54.6875
1755739233.5084891,-22.4609375,-25.390625,-40.52734375,-55.17578125
1755739233.5134797,-9.27734375,-26.3671875,-27.83203125,-40.52734375
1755739233.5184703,-36.62109375,-31.25,-33.69140625,-41.50390625
1755739233.523461,-53.22265625,-48.33984375,-40.0390625,-50.78125
1755739233.528452,-30.76171875,-47.36328125,-27.83203125,-40.0390625
1755739233.5333998,-16.11328125,-26.3671875,-3.41796875,-30.76171875
1755739233.5383475,-23.4375,-21.97265625,-20.5078125,-48.828125
1755739233.5432954,-46.875,-37.109375,-41.9921875,-62.98828125
1755739233.5482433,-35.15625,-45.41015625,-28.80859375,-48.828125
1755739233.5531912,-13.671875,-45.8984375,-38.0859375,-40.52734375
1755739233.5581388,-38.57421875,-37.59765625,-57.12890625,-49.31640625
1755739233.5630867,-54.6875,-41.015625,-53.7109375,-67.3828125
1755739233.5680346,-62.98828125,-38.0859375,-40.0390625,-80.078125
1755739233.5729823,-53.22265625,-30.76171875,-27.34375,-77.1484375
1755739233.5779305,-26.3671875,-32.71484375,-41.9921875,-55.17578125
1755739233.582878,-43.45703125,-47.36328125,-53.7109375,-38.57421875
1755739233.587826,-55.6640625,-60.546875,-41.015625,-55.6640625
1755739233.5890915,-51.7578125,-49.31640625,-44.921875,-64.94140625
1755739233.590357,-43.9453125,-42.48046875,-44.43359375,-49.31640625
1755739233.5916226,-47.36328125,-45.8984375,-28.80859375,-47.36328125
1755739233.592888,-58.59375,-29.78515625,-20.5078125,-64.94140625
1755739233.5941536,-35.64453125,-23.4375,-13.18359375,-59.5703125
1755739233.5954192,-15.625,-49.31640625,-19.04296875,-36.62109375
1755739233.5966847,-46.38671875,-59.5703125,-42.96875,-56.640625
1755739233.5979502,-76.66015625,-59.08203125,-46.38671875,-75.1953125
1755739233.5992155,-60.05859375,-53.7109375,-31.73828125,-63.96484375
1755739233.6004813,-31.25,-55.6640625,-16.6015625,-38.0859375
1755739233.6017468,-3.90625,-46.38671875,-6.8359375,-18.5546875
1755739233.6030123,-31.25,-28.3203125,-27.83203125,-46.38671875
1755739233.6079645,-48.828125,-9.765625,-46.38671875,-54.6875
1755739233.6129162,-26.85546875,-41.015625,-41.015625,-50.78125
1755739233.617868,-33.203125,-71.2890625,-36.62109375,-52.734375
1755739233.62282,-41.9921875,-49.31640625,-35.15625,-38.0859375
1755739233.627772,-42.96875,-59.5703125,-25.87890625,-50.78125
1755739233.6327238,-33.69140625,-52.734375,-32.71484375,-62.01171875
1755739233.6376758,-37.59765625,-47.36328125,-52.734375,-46.875
1755739233.6426277,-53.7109375,-50.29296875,-60.05859375,-46.875
1755739233.6475797,-48.828125,-46.875,-59.08203125,-61.5234375
1755739233.6525314,-25.87890625,-41.50390625,-38.57421875,-47.8515625
1755739233.657483,-24.4140625,-47.8515625,-38.57421875,-33.203125
1755739233.6624353,-35.15625,-45.41015625,-47.36328125,-44.43359375
1755739233.6661956,-58.10546875,-39.55078125,-52.24609375,-62.98828125
1755739233.669956,-54.6875,-54.19921875,-47.36328125,-62.5
1755739233.673716,-20.99609375,-42.96875,-53.7109375,-40.0390625
1755739233.6774764,-35.64453125,-32.2265625,-60.05859375,-46.38671875
1755739233.6812367,-74.21875,-33.69140625,-52.24609375,-67.3828125
1755739233.684997,-66.89453125,-47.8515625,-44.921875,-65.4296875
1755739233.6887574,-38.0859375,-60.546875,-34.66796875,-49.8046875
1755739233.6925178,-33.203125,-54.6875,-32.2265625,-47.36328125
1755739233.696278,-49.8046875,-53.7109375,-26.85546875,-65.91796875
1755739233.7000382,-58.10546875,-47.8515625,-41.9921875,-65.4296875
1755739233.7037983,-31.73828125,-53.22265625,-57.12890625,-53.7109375
1755739233.7075589,-19.53125,-53.22265625,-57.6171875,-50.29296875
1755739233.7113566,-30.2734375,-37.59765625,-62.5,-41.9921875
1755739233.7151542,-31.25,-33.203125,-50.29296875,-56.640625
1755739233.718952,-38.0859375,-28.80859375,-36.1328125,-59.5703125
1755739233.7227497,-30.76171875,-27.34375,-35.15625,-50.78125
1755739233.7265472,-34.66796875,-44.921875,-47.8515625,-47.36328125
1755739233.730345,-42.48046875,-61.03515625,-62.98828125,-44.921875
1755739233.7341428,-38.57421875,-68.84765625,-35.15625,-31.25
1755739233.7379403,-23.4375,-49.31640625,-25.390625,-23.92578125
1755739233.741738,-17.578125,-27.34375,-44.43359375,-33.203125
1755739233.745536,-47.8515625,-47.36328125,-48.828125,-64.94140625
1755739233.7493334,-60.05859375,-27.83203125,-53.7109375,-82.51953125
1755739233.7531312,-41.9921875,-10.25390625,-45.8984375,-57.12890625
1755739233.7569146,-38.0859375,-35.15625,-37.59765625,-47.36328125
1755739233.760698,-40.52734375,-40.52734375,-36.62109375,-48.828125
1755739233.7644815,-50.78125,-41.9921875,-23.92578125,-59.08203125
1755739233.768265,-49.31640625,-83.984375,-22.4609375,-51.26953125
1755739233.7720485,-34.66796875,-76.66015625,-18.5546875,-23.92578125
1755739233.775832,-33.69140625,-21.97265625,-5.37109375,-28.80859375
1755739233.7796154,-50.29296875,-31.25,-17.08984375,-70.3125
1755739233.7833989,-47.36328125,-24.4140625,-35.64453125,-86.9140625
1755739233.7871823,-35.15625,-11.71875,-31.73828125,-71.2890625
1755739233.7909658,-40.0390625,-22.94921875,-24.4140625,-43.45703125
1755739233.7947493,-62.5,-30.76171875,-24.4140625,-53.22265625
1755739233.7985327,-61.5234375,-38.0859375,-11.23046875,-65.4296875
1755739233.8022895,-19.53125,-39.0625,-0.48828125,-54.6875
1755739233.8060467,-16.11328125,-55.6640625,5.859375,-57.12890625
1755739233.8098035,-42.96875,-65.4296875,-4.8828125,-76.171875
1755739233.8135607,-55.6640625,-50.29296875,-20.01953125,-84.9609375
1755739233.8173175,-43.45703125,-40.52734375,-30.2734375,-73.2421875
1755739233.8210747,-25.87890625,-49.31640625,-40.0390625,-67.3828125
1755739233.8248315,-44.43359375,-51.26953125,-44.43359375,-82.51953125
1755739233.8285887,-70.3125,-49.8046875,-36.1328125,-81.54296875
1755739233.8323455,-46.875,-51.7578125,-20.5078125,-66.89453125
1755739233.8361027,-6.8359375,-54.6875,-7.32421875,-52.24609375
1755739233.8398595,-9.765625,-58.10546875,-4.39453125,-43.9453125
1755739233.8436167,-51.7578125,-50.78125,-22.4609375,-67.87109375
1755739233.848683,-60.05859375,-52.24609375,-25.87890625,-76.66015625
1755739233.8537493,-32.71484375,-62.01171875,-26.3671875,-65.91796875
1755739233.8588157,-11.71875,-50.29296875,-36.1328125,-44.43359375
1755739233.8638818,-4.8828125,-41.50390625,-11.23046875,-40.52734375
1755739233.8689482,-23.4375,-39.55078125,-2.9296875,-51.7578125
1755739233.8740144,-15.625,-41.015625,-20.5078125,-55.6640625
1755739233.8790808,-1.953125,-57.6171875,-29.78515625,-62.98828125
1755739233.8841472,-19.53125,-60.546875,-37.109375,-62.01171875
1755739233.889213,-28.80859375,-56.640625,-40.0390625,-73.2421875
1755739233.8942797,-31.25,-75.1953125,-27.34375,-71.77734375
1755739233.899346,-16.11328125,-83.49609375,-26.3671875,-55.6640625
1755739233.9044125,-3.90625,-46.38671875,-37.59765625,-57.12890625
1755739233.906844,-8.7890625,-22.94921875,-23.4375,-61.5234375
1755739233.9092753,-1.953125,-37.109375,-23.4375,-52.734375
1755739233.911707,13.18359375,-51.7578125,-26.3671875,-45.41015625
1755739233.9141386,22.4609375,-46.38671875,-20.01953125,-42.48046875
1755739233.91657,-14.16015625,-47.36328125,-18.5546875,-42.96875
1755739233.9190016,-29.78515625,-50.78125,-9.27734375,-64.453125
1755739233.9214332,-6.8359375,-47.8515625,-13.671875,-63.4765625
1755739233.9238646,-2.9296875,-44.921875,-20.5078125,-45.8984375
1755739233.9262962,-29.78515625,-45.8984375,-16.11328125,-51.7578125
1755739233.928728,-17.08984375,-40.52734375,-6.34765625,-58.59375
1755739233.9311593,5.859375,-20.01953125,-6.34765625,-48.828125
1755739233.933591,3.41796875,-22.94921875,-9.27734375,-34.66796875
1755739233.93734,-2.9296875,-39.0625,-11.71875,-54.6875
1755739233.9410892,-16.11328125,-44.43359375,-16.11328125,-74.21875
1755739233.944838,-17.08984375,-49.8046875,-21.97265625,-67.3828125
1755739233.9485872,-19.53125,-41.9921875,-24.90234375,-53.22265625
1755739233.9523363,-9.765625,-44.921875,-25.390625,-40.0390625
1755739233.9560852,-12.6953125,-46.875,-38.0859375,-52.24609375
1755739233.9598343,-13.671875,-56.640625,-33.203125,-56.15234375
1755739233.9635837,14.6484375,-57.6171875,-14.6484375,-43.45703125
1755739233.9673326,6.8359375,-36.1328125,-4.39453125,-60.05859375
1755739233.9710815,-21.484375,-32.2265625,-1.46484375,-76.66015625
1755739233.9748306,-21.484375,-25.390625,-0.48828125,-66.89453125
1755739233.9785798,-8.7890625,-41.015625,9.27734375,-50.29296875
1755739233.9834754,-19.04296875,-44.43359375,5.37109375,-44.43359375
1755739233.988371,-33.69140625,-33.69140625,-8.30078125,-59.08203125
1755739233.9932666,-39.55078125,-27.83203125,-14.6484375,-67.87109375
1755739233.9981625,-19.53125,-19.04296875,-12.20703125,-53.7109375
1755739234.003058,3.90625,-38.0859375,-15.625,-31.25
1755739234.0079536,-4.39453125,-51.7578125,-14.16015625,-32.71484375
1755739234.012849,-25.87890625,-44.921875,-26.3671875,-70.3125
1755739234.0177448,-35.15625,-45.41015625,-31.25,-85.44921875
1755739234.0226405,-24.4140625,-48.828125,-12.6953125,-62.98828125
1755739234.027536,-26.85546875,-53.7109375,-15.625,-53.7109375
1755739234.0324316,-24.90234375,-57.12890625,-16.11328125,-70.80078125
1755739234.0373273,-24.90234375,-52.734375,-5.37109375,-84.9609375
1755739234.041298,-28.80859375,-45.8984375,-1.46484375,-79.58984375
1755739234.0452683,-23.92578125,-46.38671875,-11.23046875,-68.359375
1755739234.0492394,-19.53125,-47.8515625,-16.6015625,-68.84765625
1755739234.05321,-16.6015625,-33.69140625,-17.578125,-69.82421875
1755739234.0571806,4.8828125,-26.3671875,-29.296875,-60.05859375
1755739234.0611515,-0.9765625,-31.25,-27.34375,-41.9921875
1755739234.065122,-29.78515625,-33.203125,-15.625,-46.875
1755739234.0690928,-19.53125,-40.52734375,-15.13671875,-62.98828125
1755739234.0730634,-6.8359375,-30.2734375,-25.390625,-54.6875
1755739234.077034,-5.37109375,-9.27734375,-0.9765625,-32.2265625
1755739234.0810049,-1.953125,-4.39453125,6.8359375,-38.57421875
1755739234.0849755,-26.85546875,-18.06640625,-20.99609375,-73.73046875
1755739234.08867,-30.76171875,-23.4375,-18.06640625,-76.66015625
1755739234.0923648,-27.83203125,-40.0390625,-33.203125,-56.640625
1755739234.096059,-34.1796875,-60.05859375,-42.96875,-58.10546875
1755739234.099754,-25.390625,-39.0625,-16.6015625,-66.89453125
1755739234.1034484,-27.83203125,-50.29296875,-18.5546875,-69.3359375
1755739234.107143,-4.39453125,-43.9453125,-41.015625,-48.33984375
1755739234.1108377,0.48828125,0.9765625,-40.0390625,-42.96875
1755739234.1145322,-40.0390625,0.9765625,-28.3203125,-59.08203125
1755739234.1182268,-45.41015625,-30.2734375,-19.53125,-66.40625
1755739234.1219215,-9.27734375,-41.9921875,7.8125,-44.43359375
1755739234.125616,3.90625,-35.64453125,-0.48828125,-32.2265625
1755739234.1293106,-24.90234375,-36.62109375,-29.296875,-66.40625
1755739234.1329854,-49.31640625,-45.41015625,-23.92578125,-98.14453125
1755739234.13666,-34.66796875,-34.66796875,-11.23046875,-77.63671875
1755739234.1403346,-1.46484375,-42.48046875,-14.16015625,-57.6171875
1755739234.144009,-20.99609375,-56.15234375,-36.1328125,-63.4765625
1755739234.147684,-49.8046875,-27.83203125,-48.828125,-81.54296875
1755739234.1513586,-30.76171875,-38.0859375,-54.6875,-85.9375
1755739234.155033,-8.7890625,-53.7109375,-54.19921875,-77.63671875
1755739234.158708,-33.203125,-61.03515625,-52.24609375,-95.21484375
1755739234.1623824,-64.453125,-53.7109375,-31.25,-103.515625
1755739234.166057,-53.22265625,-21.97265625,-13.18359375,-101.07421875
1755739234.1697316,-40.52734375,-18.5546875,-11.71875,-104.4921875
1755739234.1734064,-32.71484375,-20.99609375,-0.48828125,-95.21484375
1755739234.1771736,-39.0625,-18.06640625,0.48828125,-111.81640625
1755739234.1809409,-54.6875,-21.484375,-12.20703125,-127.44140625
1755739234.184708,-30.76171875,-35.15625,-20.01953125,-110.3515625
1755739234.1884754,-1.46484375,-40.52734375,-11.23046875,-89.84375
1755739234.1922426,-36.62109375,-37.59765625,-13.671875,-106.4453125
1755739234.1960096,-68.84765625,-48.33984375,-17.578125,-134.27734375
1755739234.199777,-44.921875,-32.71484375,-4.39453125,-134.27734375
1755739234.203544,-27.83203125,-22.94921875,-20.99609375,-117.1875
1755739234.2073114,-40.52734375,-31.25,-26.85546875,-123.53515625
1755739234.2110786,-65.91796875,-13.18359375,3.41796875,-155.2734375
1755739234.214846,-61.5234375,-10.7421875,15.625,-168.45703125
1755739234.2186131,-16.6015625,-23.92578125,7.8125,-167.48046875
1755739234.2223575,-27.83203125,-33.69140625,-8.7890625,-179.6875
1755739234.2261024,-48.828125,-52.734375,0.9765625,-191.40625
1755739234.229847,-38.0859375,-55.17578125,5.859375,-192.87109375
1755739234.2335918,-20.5078125,-36.62109375,-22.94921875,-190.4296875
1755739234.2373364,-8.7890625,-46.38671875,-28.80859375,-192.87109375
1755739234.241081,-53.22265625,-55.6640625,-5.859375,-215.8203125
1755739234.2448256,-66.40625,-41.015625,13.671875,-214.84375
1755739234.2485702,-16.6015625,-27.34375,22.94921875,-175.78125
1755739234.252315,-2.44140625,-21.97265625,14.16015625,-172.36328125
1755739234.2560596,-28.3203125,-35.15625,9.27734375,-194.3359375
1755739234.2598042,-46.875,-64.94140625,14.6484375,-207.51953125
1755739234.2635489,-9.27734375,-66.89453125,19.53125,-186.5234375
1755739234.2672973,13.671875,-45.8984375,15.625,-170.41015625
1755739234.2710454,-11.71875,-45.41015625,1.46484375,-179.19921875
1755739234.2747936,-32.71484375,-62.5,-6.8359375,-200.1953125
1755739234.278542,-23.4375,-83.984375,-2.9296875,-213.8671875
1755739234.2822905,2.9296875,-77.63671875,3.90625,-187.98828125
1755739234.2860386,-4.8828125,-48.33984375,15.625,-156.25
1755739234.2897868,-19.04296875,-39.55078125,12.6953125,-166.50390625
1755739234.2935352,-12.6953125,-57.12890625,-1.953125,-184.08203125
1755739234.2972836,-23.4375,-78.61328125,-6.34765625,-191.89453125
1755739234.3010318,9.27734375,-64.453125,2.44140625,-162.59765625
1755739234.30478,10.7421875,-47.36328125,2.44140625,-175.78125
1755739234.3085284,-39.55078125,-45.8984375,-3.90625,-210.9375
1755739234.3146265,-41.9921875,-43.9453125,-13.671875,-185.05859375
1755739234.3207245,-1.46484375,-42.48046875,-8.30078125,-157.2265625
1755739234.3268228,13.18359375,-43.45703125,21.97265625,-164.0625
1755739234.3329208,-24.90234375,-39.0625,29.296875,-197.75390625
1755739234.3390188,-26.3671875,-35.15625,29.296875,-207.51953125
1755739234.345117,5.859375,-53.7109375,19.04296875,-204.58984375
1755739234.3512151,0.48828125,-68.359375,-3.90625,-186.03515625
1755739234.3573132,-29.296875,-46.875,3.41796875,-191.40625
1755739234.3634112,-30.2734375,-25.390625,8.30078125,-208.984375
1755739234.3695092,-10.25390625,-26.3671875,-1.953125,-186.03515625
1755739234.3756075,-41.9921875,-31.73828125,4.8828125,-181.15234375
1755739234.3817055,-50.29296875,-32.71484375,8.7890625,-184.08203125
1755739234.3842168,-4.8828125,-31.25,-8.7890625,-189.94140625
1755739234.3867283,19.04296875,-29.78515625,-3.41796875,-187.01171875
1755739234.3892398,8.7890625,-37.59765625,12.6953125,-176.26953125
1755739234.391751,-25.87890625,-35.64453125,22.4609375,-196.2890625
1755739234.3942623,-40.52734375,-34.66796875,31.73828125,-196.77734375
1755739234.3967738,-19.53125,-42.48046875,21.484375,-179.19921875
1755739234.3992853,-1.953125,-31.73828125,19.53125,-160.64453125
1755739234.4017966,-1.953125,-30.76171875,-1.46484375,-174.31640625
1755739234.4043078,-24.90234375,-32.2265625,-15.13671875,-198.73046875
1755739234.406819,-21.484375,-48.33984375,-0.48828125,-191.89453125
1755739234.4093308,12.20703125,-76.66015625,12.6953125,-166.015625
1755739234.411842,-9.765625,-66.89453125,19.04296875,-166.015625
1755739234.415688,-27.34375,-45.8984375,5.859375,-182.6171875
1755739234.4195342,-13.18359375,-27.83203125,-4.8828125,-181.15234375
1755739234.4233804,-17.08984375,-36.62109375,-5.37109375,-181.15234375
1755739234.4272263,-19.53125,-51.26953125,-5.859375,-176.7578125
1755739234.4310722,-23.92578125,-35.64453125,-10.25390625,-190.91796875
1755739234.4349184,-26.3671875,-30.2734375,-32.2265625,-202.63671875
1755739234.4387646,-25.87890625,-29.296875,-45.8984375,-171.875
1755739234.4426105,-19.04296875,-29.78515625,-42.48046875,-172.8515625
1755739234.4464564,-27.83203125,-34.66796875,-32.2265625,-180.17578125
1755739234.4503026,-25.87890625,-35.15625,-25.390625,-192.87109375
1755739234.4541488,-20.5078125,-35.64453125,-33.203125,-179.6875
1755739234.4579947,-12.6953125,-51.26953125,-44.921875,-156.73828125
1755739234.4617994,-17.08984375,-57.6171875,-36.1328125,-152.83203125
1755739234.4656043,-48.828125,-40.52734375,-20.01953125,-182.12890625
1755739234.469409,-59.08203125,-40.52734375,-32.71484375,-201.66015625
1755739234.4732137,-35.15625,-36.1328125,-33.69140625,-174.8046875
1755739234.4770184,-4.8828125,-39.0625,-22.4609375,-164.0625
1755739234.480823,-14.6484375,-65.4296875,-32.71484375,-172.36328125
1755739234.484628,-21.97265625,-42.96875,-31.25,-178.7109375
1755739234.4884326,-4.39453125,-10.25390625,-14.6484375,-151.85546875
1755739234.492237,-15.13671875,-9.765625,-17.578125,-130.37109375
1755739234.4960425,-37.59765625,-20.99609375,-28.80859375,-151.85546875
1755739234.499847,-40.0390625,-44.921875,-17.578125,-170.8984375
1755739234.5036516,-12.6953125,-60.05859375,-10.25390625,-155.76171875
1755739234.507391,6.34765625,-49.31640625,-20.99609375,-127.44140625
1755739234.5111303,-18.06640625,-39.55078125,-27.83203125,-125.9765625
1755739234.5148697,-47.8515625,-28.3203125,-25.390625,-167.96875
1755739234.5186088,-40.0390625,-18.06640625,-26.85546875,-169.921875
1755739234.5223482,-24.4140625,-35.64453125,-25.87890625,-140.625
1755739234.5260873,-28.80859375,-53.7109375,-16.11328125,-143.5546875
1755739234.5298266,-38.57421875,-54.19921875,-12.6953125,-161.1328125
1755739234.533566,-63.96484375,-50.29296875,-13.671875,-170.41015625
1755739234.5373054,-38.57421875,-48.33984375,-15.625,-150.87890625
1755739234.5410447,-12.20703125,-43.45703125,-18.06640625,-136.23046875
1755739234.5447838,-32.2265625,-43.9453125,-19.53125,-164.55078125
1755739234.5485232,-34.66796875,-46.875,-30.2734375,-161.62109375
1755739234.5523975,-15.13671875,-41.015625,-34.1796875,-144.53125
1755739234.5562725,-4.39453125,-52.24609375,-14.16015625,-142.578125
1755739234.5601468,-30.76171875,-54.6875,-21.484375,-148.4375
1755739234.564021,-69.82421875,-58.59375,-34.66796875,-149.90234375
1755739234.567896,-62.5,-60.546875,-32.71484375,-140.13671875
1755739234.5717704,-14.16015625,-26.85546875,-24.90234375,-104.00390625
1755739234.575645,-14.6484375,-23.4375,-23.4375,-109.86328125
1755739234.5795195,-45.8984375,-36.62109375,-17.08984375,-169.43359375
1755739234.583394,-44.921875,-34.1796875,-18.06640625,-166.50390625
1755739234.5872686,-5.859375,-36.1328125,-35.64453125,-147.4609375
1755739234.5911431,-9.27734375,-42.96875,-44.921875,-150.390625
1755739234.5950177,-23.4375,-43.45703125,-50.78125,-129.39453125
1755739234.59863,-6.8359375,-54.6875,-52.24609375,-117.1875
1755739234.602242,-10.25390625,-57.6171875,-54.19921875,-116.69921875
1755739234.605854,-10.25390625,-47.8515625,-60.546875,-98.14453125
1755739234.6094663,-5.37109375,-61.5234375,-68.359375,-110.83984375
1755739234.6130786,0.0,-79.58984375,-66.89453125,-116.69921875
1755739234.6166906,32.2265625,-80.078125,-61.5234375,-91.796875
1755739234.620303,22.94921875,-66.89453125,-77.1484375,-93.26171875
1755739234.623915,-1.953125,-45.41015625,-89.84375,-99.12109375
1755739234.6275272,-15.625,-26.3671875,-77.63671875,-123.53515625
1755739234.6311393,-16.11328125,-26.3671875,-65.91796875,-138.671875
1755739234.634751,13.18359375,-43.9453125,-68.84765625,-117.67578125
1755739234.6383636,11.71875,-55.17578125,-67.87109375,-113.28125
1755739234.642136,-12.6953125,-58.59375,-61.03515625,-129.39453125
1755739234.645908,1.46484375,-51.26953125,-62.98828125,-126.46484375
1755739234.64968,16.6015625,-30.76171875,-58.59375,-104.00390625
1755739234.6534524,-7.8125,-25.87890625,-68.84765625,-110.3515625
1755739234.657225,-15.13671875,-30.2734375,-82.03125,-138.671875
1755739234.660997,-7.32421875,-41.015625,-64.94140625,-143.06640625
1755739234.664769,-5.859375,-53.7109375,-56.15234375,-127.9296875
1755739234.6685412,-6.34765625,-58.10546875,-64.453125,-108.3984375
1755739234.6723137,-18.06640625,-41.9921875,-59.08203125,-116.69921875
1755739234.6760857,-26.85546875,-42.96875,-48.828125,-147.94921875
1755739234.6798575,-15.625,-75.68359375,-46.875,-137.20703125
1755739234.68363,1.46484375,-55.6640625,-52.734375,-112.3046875
1755739234.687379,-17.08984375,-46.38671875,-70.80078125,-137.20703125
1755739234.6911275,-38.57421875,-61.5234375,-71.77734375,-144.04296875
1755739234.6948762,-34.66796875,-55.17578125,-63.96484375,-131.34765625
1755739234.698625,-33.203125,-49.8046875,-64.453125,-121.58203125
1755739234.702374,-11.23046875,-48.33984375,-58.59375,-126.953125
1755739234.7061226,-19.04296875,-48.828125,-43.45703125,-151.3671875
1755739234.7098713,-35.15625,-51.7578125,-47.8515625,-131.34765625
1755739234.7136202,-12.6953125,-40.52734375,-54.19921875,-116.69921875
1755739234.717369,-21.484375,-38.0859375,-47.36328125,-129.39453125
1755739234.7211175,-57.12890625,-40.0390625,-58.10546875,-120.1171875
1755739234.7248664,-41.015625,-33.203125,-77.1484375,-107.421875
1755739234.7286153,-10.25390625,-37.109375,-64.94140625,-116.69921875
1755739234.7334497,-17.578125,-34.1796875,-42.96875,-122.0703125
1755739234.738284,-23.4375,-28.80859375,-40.0390625,-108.3984375
1755739234.7431183,-21.97265625,-46.875,-36.1328125,-113.76953125
1755739234.7479527,-19.53125,-59.08203125,-37.59765625,-88.37890625
1755739234.752787,-33.203125,-40.52734375,-50.29296875,-68.359375
1755739234.7576213,-32.2265625,-35.64453125,-64.94140625,-124.0234375
1755739234.7624557,-30.76171875,-40.0390625,-65.91796875,-111.328125
1755739234.76729,-31.25,-31.25,-56.15234375,-59.08203125
1755739234.7721243,-12.20703125,-28.80859375,-51.26953125,-51.26953125
1755739234.776959,-19.53125,-27.34375,-65.4296875,-68.359375
1755739234.781793,-46.38671875,-19.53125,-73.2421875,-95.703125
1755739234.7866275,-39.0625,-24.4140625,-58.59375,-102.5390625
1755739234.7904336,-7.32421875,-49.8046875,-50.29296875,-66.89453125
1755739234.79424,-1.46484375,-55.6640625,-41.9921875,-8.7890625
1755739234.798046,-14.6484375,-33.69140625,-38.57421875,-35.64453125
1755739234.8018522,-28.3203125,-15.13671875,-45.8984375,-63.96484375
1755739234.8056583,-34.66796875,-14.6484375,-54.6875,-37.109375
1755739234.8094645,-42.96875,-40.0390625,-58.59375,-33.69140625
1755739234.8132708,-67.3828125,-56.15234375,-60.05859375,-52.734375
1755739234.817077,-70.80078125,-52.734375,-63.4765625,-51.26953125
1755739234.820883,-41.50390625,-41.9921875,-68.84765625,-25.390625
1755739234.8246894,-39.0625,-49.8046875,-71.77734375,-0.9765625
1755739234.8284955,-52.734375,-44.921875,-63.96484375,-28.80859375
1755739234.8323016,-60.05859375,-21.97265625,-61.03515625,-42.48046875
1755739234.8361876,-61.5234375,-37.59765625,-67.87109375,23.4375
1755739234.8400736,-44.921875,-40.52734375,-74.21875,32.71484375
1755739234.843959,-48.828125,-24.4140625,-82.51953125,17.578125
1755739234.8478453,-79.58984375,-5.859375,-83.0078125,23.92578125
1755739234.8517313,-91.30859375,-2.44140625,-70.3125,10.7421875
1755739234.855617,-79.1015625,-15.13671875,-68.359375,-0.9765625
1755739234.859503,-85.9375,-29.296875,-79.58984375,-6.8359375
1755739234.863389,-113.76953125,-43.9453125,-84.9609375,-9.765625
1755739234.867275,-109.86328125,-40.0390625,-72.75390625,-6.34765625
1755739234.871161,-90.8203125,-23.4375,-64.94140625,10.7421875
1755739234.8750467,-128.41796875,-29.78515625,-96.6796875,-9.765625
1755739234.8789327,-160.64453125,-23.4375,-103.02734375,-52.734375
1755739234.882661,-157.2265625,-28.80859375,-96.6796875,-60.05859375
1755739234.8863893,-143.06640625,-39.55078125,-97.65625,-33.69140625
1755739234.8901176,-125.48828125,-30.2734375,-86.9140625,-32.2265625
1755739234.893846,-138.18359375,-30.2734375,-93.75,-54.6875
1755739234.8975742,-151.3671875,-34.66796875,-102.05078125,-76.171875
1755739234.9013026,-140.625,-47.36328125,-106.93359375,-75.68359375
1755739234.905031,-123.53515625,-44.921875,-104.98046875,-50.29296875
1755739234.908759,-121.58203125,-52.24609375,-96.6796875,-54.19921875
1755739234.9124875,-144.04296875,-60.05859375,-103.02734375,-86.42578125
1755739234.916216,-146.97265625,-41.9921875,-110.83984375,-91.30859375
1755739234.919944,-111.81640625,-27.83203125,-106.93359375,-67.87109375
1755739234.9236724,-119.140625,-40.0390625,-122.0703125,-64.453125
1755739234.9274151,-149.4140625,-45.8984375,-132.32421875,-87.40234375
1755739234.9311578,-121.09375,-34.1796875,-110.83984375,-76.66015625
1755739234.9349003,-99.12109375,-33.69140625,-113.76953125,-62.01171875
1755739234.9386432,-66.89453125,-34.66796875,-135.25390625,-76.171875
1755739234.942386,-47.8515625,-29.78515625,-125.48828125,-87.890625
1755739234.9461286,-68.84765625,-23.92578125,-107.91015625,-80.078125
1755739234.9498713,-48.33984375,-47.36328125,-114.74609375,-84.9609375
1755739234.953614,-29.296875,-64.453125,-110.3515625,-74.21875
1755739234.9573567,-41.50390625,-51.26953125,-100.09765625,-68.359375
1755739234.9610994,-41.50390625,-44.43359375,-105.95703125,-86.9140625
1755739234.964842,-35.64453125,-49.31640625,-122.0703125,-99.12109375
1755739234.9685848,-13.671875,-66.89453125,-121.09375,-87.890625
1755739234.9723363,1.46484375,-78.61328125,-103.02734375,-66.89453125
1755739234.976088,-28.80859375,-56.640625,-98.6328125,-92.28515625
1755739234.9798398,-51.26953125,-40.0390625,-102.5390625,-117.67578125
1755739234.9835916,-31.25,-36.62109375,-98.6328125,-99.12109375
1755739234.987343,-14.6484375,-38.0859375,-102.5390625,-68.359375
1755739234.9910948,-34.66796875,-48.828125,-114.2578125,-82.03125
1755739234.9948466,-55.6640625,-43.45703125,-111.328125,-114.74609375
1755739234.998598,-37.109375,-44.921875,-99.609375,-89.84375
1755739235.00235,-15.625,-53.22265625,-100.09765625,-73.2421875
1755739235.0061016,-27.34375,-42.96875,-96.19140625,-94.23828125
1755739235.0098531,-56.15234375,-43.45703125,-103.02734375,-108.88671875
1755739235.0136049,-38.57421875,-73.73046875,-116.2109375,-101.5625
1755739235.0174751,-17.578125,-67.87109375,-109.86328125,-85.44921875
1755739235.0213456,-40.0390625,-46.875,-101.5625,-81.0546875
1755739235.025216,-41.015625,-40.0390625,-85.44921875,-96.19140625
1755739235.029086,-33.69140625,-35.64453125,-85.44921875,-96.19140625
1755739235.0329566,-12.6953125,-35.64453125,-95.703125,-89.35546875
1755739235.0368268,-1.953125,-30.76171875,-97.16796875,-90.8203125
1755739235.040697,-21.97265625,-36.1328125,-83.0078125,-102.5390625
1755739235.0445676,-18.5546875,-59.08203125,-71.2890625,-98.6328125
1755739235.0484378,7.32421875,-74.21875,-77.1484375,-89.84375
1755739235.052308,10.25390625,-71.77734375,-72.265625,-70.80078125
1755739235.0561786,-21.484375,-70.3125,-70.80078125,-62.01171875
1755739235.0600488,-31.73828125,-72.75390625,-86.9140625,-82.03125
1755739235.0636752,-38.0859375,-57.6171875,-103.515625,-79.1015625
1755739235.0673018,-7.8125,-44.43359375,-93.26171875,-34.66796875
1755739235.070928,24.4140625,-47.36328125,-70.3125,-41.9921875
1755739235.0745544,-28.80859375,-38.57421875,-61.03515625,-103.02734375
1755739235.078181,-54.6875,-31.25,-73.73046875,-112.79296875
1755739235.0818074,-45.41015625,-47.36328125,-80.56640625,-107.421875
1755739235.0854335,-55.17578125,-54.6875,-73.2421875,-119.140625
1755739235.0890603,-99.12109375,-58.59375,-55.17578125,-148.4375
1755739235.092687,-127.44140625,-90.33203125,-51.26953125,-176.26953125
1755739235.096313,-111.81640625,-70.3125,-61.5234375,-153.80859375
1755739235.0999396,-110.3515625,-41.50390625,-69.82421875,-152.83203125
1755739235.103566,-131.8359375,-57.12890625,-80.078125,-193.359375
1755739235.1084402,-145.99609375,-53.22265625,-59.5703125,-204.58984375
1755739235.1133142,-143.06640625,-42.48046875,-47.8515625,-201.171875
1755739235.1181884,-134.27734375,-55.6640625,-77.63671875,-174.8046875
1755739235.1230626,-142.578125,-52.24609375,-85.9375,-175.29296875
1755739235.1279366,-144.53125,-44.921875,-69.3359375,-195.80078125
1755739235.1328108,-113.76953125,-68.359375,-63.96484375,-173.33984375
1755739235.137685,-97.65625,-60.546875,-54.19921875,-132.32421875
1755739235.142559,-106.4453125,-41.50390625,-46.875,-123.53515625
1755739235.1474333,-115.234375,-53.7109375,-71.77734375,-162.59765625
1755739235.1523075,-91.796875,-51.7578125,-80.078125,-149.4140625
1755739235.1571815,-62.5,-55.17578125,-62.01171875,-126.46484375
1755739235.1620555,-77.1484375,-61.03515625,-69.82421875,-127.44140625
1755739235.165881,-92.28515625,-58.59375,-89.84375,-128.90625
1755739235.169706,-93.75,-51.7578125,-78.125,-115.234375
1755739235.1735308,-86.9140625,-57.6171875,-57.12890625,-110.83984375
1755739235.1773558,-77.63671875,-73.2421875,-70.80078125,-95.703125
1755739235.181181,-82.51953125,-64.94140625,-70.3125,-100.09765625
1755739235.185006,-74.70703125,-63.4765625,-59.08203125,-118.65234375
1755739235.1888309,-52.734375,-56.640625,-59.5703125,-107.91015625
1755739235.192656,-36.1328125,-38.57421875,-39.55078125,-80.078125
1755739235.196481,-37.59765625,-42.96875,-35.64453125,-74.21875
1755739235.200306,-57.6171875,-65.4296875,-56.15234375,-99.12109375
1755739235.2041311,-60.05859375,-54.6875,-84.47265625,-96.19140625
1755739235.207956,-40.52734375,-55.17578125,-96.6796875,-65.4296875
1755739235.2117608,-39.0625,-58.10546875,-84.9609375,-73.2421875
1755739235.2155657,-74.21875,-40.0390625,-67.3828125,-108.88671875
1755739235.2193704,-76.66015625,-48.33984375,-63.4765625,-98.6328125
1755739235.223175,-49.8046875,-50.29296875,-78.125,-83.0078125
1755739235.22698,-50.78125,-54.6875,-79.58984375,-66.89453125
1755739235.230785,-48.33984375,-61.5234375,-68.84765625,-77.1484375
1755739235.234589,-40.52734375,-32.71484375,-59.5703125,-88.37890625
1755739235.2383945,-43.45703125,-25.390625,-57.12890625,-81.54296875
1755739235.242199,-44.921875,-40.0390625,-57.12890625,-68.359375
1755739235.2460036,-34.66796875,-50.78125,-60.05859375,-71.2890625
1755739235.2498083,-37.59765625,-54.6875,-61.03515625,-82.51953125
1755739235.2536132,-11.23046875,-50.78125,-50.78125,-54.19921875
1755739235.25861,-5.37109375,-55.6640625,-58.59375,-62.01171875
1755739235.2636068,-41.015625,-26.3671875,-57.12890625,-87.890625
1755739235.268603,-52.24609375,-25.390625,-42.96875,-96.6796875
1755739235.2736,-43.9453125,-36.1328125,-45.41015625,-82.51953125
1755739235.2785969,-51.7578125,-30.2734375,-59.5703125,-66.40625
1755739235.2835937,-28.3203125,-44.43359375,-63.96484375,-52.734375
1755739235.2885904,-19.04296875,-50.29296875,-55.17578125,-75.1953125
1755739235.2935872,-34.1796875,-53.7109375,-48.33984375,-72.265625
1755739235.298584,-22.4609375,-49.8046875,-46.875,-41.50390625
1755739235.3035803,-30.76171875,-48.33984375,-52.734375,-67.87109375
1755739235.3085773,-50.78125,-28.80859375,-41.015625,-85.9375
1755739235.313574,-48.33984375,-25.390625,-35.64453125,-69.3359375
1755739235.317101,-18.5546875,-36.62109375,-35.64453125,-54.6875
1755739235.320628,-15.625,-41.9921875,-28.80859375,-44.43359375
1755739235.3241549,-36.1328125,-57.6171875,-24.90234375,-52.24609375
1755739235.3276818,-37.109375,-50.78125,-18.5546875,-76.66015625
1755739235.3312087,-25.87890625,-37.109375,-19.04296875,-71.77734375
1755739235.3347356,-11.71875,-31.73828125,-24.90234375,-52.24609375
1755739235.3382626,-20.5078125,-44.43359375,-38.0859375,-57.12890625
1755739235.3417895,-41.50390625,-44.43359375,-49.31640625,-64.453125
1755739235.3453164,-40.0390625,-45.41015625,-53.22265625,-63.4765625
1755739235.348843,-16.11328125,-42.96875,-57.12890625,-54.19921875
1755739235.3523705,-20.01953125,-19.53125,-44.43359375,-40.52734375
1755739235.3558972,-43.9453125,-41.015625,-42.48046875,-49.8046875
1755739235.361053,-43.45703125,-52.734375,-47.8515625,-61.03515625
1755739235.3662088,-22.94921875,-33.203125,-30.2734375,-44.921875
1755739235.3713646,-9.765625,-40.0390625,-13.671875,-25.390625
1755739235.3765206,-29.296875,-45.41015625,-11.71875,-50.78125
1755739235.3816764,-40.52734375,-38.57421875,-21.484375,-85.44921875
1755739235.3868322,-24.4140625,-34.66796875,-29.296875,-68.359375
1755739235.391988,-19.53125,-26.85546875,-29.78515625,-51.7578125
1755739235.3971438,-44.43359375,-31.25,-28.80859375,-59.08203125
1755739235.4023,-65.91796875,-50.29296875,-39.0625,-76.66015625
1755739235.4074557,-31.25,-51.7578125,-51.7578125,-66.40625
1755739235.4126115,8.7890625,-54.19921875,-43.9453125,-41.50390625
1755739235.4177673,-13.671875,-46.38671875,-18.06640625,-27.83203125
1755739235.419094,-52.24609375,-46.875,-9.27734375,-50.29296875
1755739235.4204211,-57.6171875,-51.7578125,-14.6484375,-76.66015625
1755739235.4217482,-40.52734375,-55.6640625,-14.6484375,-59.08203125
1755739235.423075,-39.55078125,-51.7578125,-25.87890625,-50.29296875
1755739235.4244018,-60.546875,-46.875,-44.921875,-70.80078125
1755739235.4257288,-71.2890625,-60.05859375,-41.50390625,-93.26171875
1755739235.4270558,-52.24609375,-60.546875,-28.3203125,-72.265625
1755739235.4283826,-30.2734375,-66.40625,-34.1796875,-44.43359375
1755739235.4297094,-46.875,-74.21875,-37.109375,-61.5234375
1755739235.4310365,-49.8046875,-78.61328125,-19.04296875,-70.80078125
1755739235.4323635,-25.87890625,-81.54296875,-23.92578125,-71.77734375
1755739235.4336903,-8.30078125,-73.2421875,-38.57421875,-52.734375
1755739235.4374316,-33.69140625,-63.4765625,-42.96875,-62.5
1755739235.4411726,-65.4296875,-51.26953125,-45.41015625,-76.171875
1755739235.444914,-47.36328125,-36.62109375,-46.38671875,-77.1484375
1755739235.448655,-29.78515625,-58.10546875,-54.6875,-68.359375
1755739235.4523962,-32.2265625,-59.5703125,-48.33984375,-52.24609375
1755739235.4561372,-22.94921875,-31.73828125,-11.23046875,-59.5703125
1755739235.4598784,-37.109375,-35.15625,-1.953125,-58.10546875
1755739235.4636197,-38.0859375,-53.7109375,-20.01953125,-50.29296875
1755739235.4673607,-14.6484375,-55.6640625,-30.2734375,-47.8515625
1755739235.471102,-15.13671875,-76.66015625,-26.85546875,-47.8515625
1755739235.474843,-26.85546875,-74.21875,-24.4140625,-65.91796875
1755739235.4785843,-6.8359375,-41.9921875,-20.99609375,-60.05859375
1755739235.4824476,3.41796875,-31.25,-14.6484375,-38.57421875
1755739235.486311,-28.80859375,-25.87890625,-23.92578125,-63.96484375
1755739235.490174,-49.31640625,-56.640625,-44.43359375,-94.7265625
1755739235.4940374,-24.90234375,-76.66015625,-27.34375,-67.3828125
1755739235.4979007,-24.90234375,-58.59375,-16.6015625,-47.36328125
1755739235.5017638,-45.8984375,-51.7578125,-26.3671875,-63.4765625
1755739235.5056272,-53.7109375,-50.78125,-13.18359375,-71.77734375
1755739235.5094905,-50.29296875,-62.98828125,-22.94921875,-79.1015625
1755739235.5133538,-37.109375,-65.4296875,-31.25,-77.1484375
1755739235.5172172,-38.0859375,-57.12890625,-21.484375,-74.21875
1755739235.5210805,-46.38671875,-53.7109375,-30.76171875,-87.40234375
1755739235.5249436,-39.55078125,-46.38671875,-21.97265625,-70.80078125
1755739235.5310102,-27.34375,-62.5,-17.578125,-60.546875
1755739235.537077,-38.0859375,-59.5703125,-36.62109375,-71.2890625
1755739235.5431435,-57.12890625,-31.25,-15.13671875,-80.078125
1755739235.54921,-61.03515625,-39.0625,14.6484375,-99.609375
1755739235.5552769,-35.64453125,-43.9453125,6.34765625,-90.33203125
1755739235.5613434,-23.4375,-42.48046875,-3.41796875,-60.546875
1755739235.56741,-55.6640625,-45.8984375,-12.6953125,-71.2890625
1755739235.5734768,-84.47265625,-48.33984375,-22.94921875,-99.609375
1755739235.5795434,-59.08203125,-38.0859375,-26.85546875,-98.14453125
1755739235.58561,-31.25,-35.15625,-9.765625,-72.75390625
1755739235.5916767,-43.45703125,-51.26953125,-3.41796875,-87.40234375
1755739235.5977433,-96.6796875,-41.50390625,-18.5546875,-131.8359375
1755739235.6003044,-121.58203125,-45.8984375,-31.25,-148.92578125
1755739235.6028657,-116.2109375,-60.05859375,-56.640625,-160.15625
1755739235.6054268,-141.11328125,-56.640625,-46.38671875,-182.6171875
1755739235.607988,-197.75390625,-53.22265625,-27.83203125,-221.19140625
1755739235.6105492,-210.44921875,-41.9921875,-32.71484375,-248.046875
1755739235.6131103,-200.1953125,-41.50390625,-27.34375,-248.53515625
1755739235.6156714,-206.54296875,-34.66796875,-18.06640625,-234.375
1755739235.6182327,-243.65234375,-55.17578125,-17.08984375,-261.23046875
1755739235.6207938,-275.390625,-90.33203125,-11.23046875,-289.0625
1755739235.623355,-250.0,-69.3359375,0.9765625,-273.4375
1755739235.6259162,-255.37109375,-32.71484375,-13.18359375,-277.83203125
1755739235.628477,-260.7421875,-23.4375,-18.06640625,-290.52734375
1755739235.6322362,-283.203125,-46.38671875,-1.46484375,-292.96875
1755739235.635995,-274.90234375,-76.171875,-3.90625,-281.73828125
1755739235.6397538,-215.8203125,-69.82421875,-0.48828125,-256.34765625
1755739235.6435127,-212.890625,-42.48046875,10.7421875,-238.28125
1755739235.6472714,-208.984375,-36.62109375,15.625,-231.93359375
1755739235.6510303,-192.87109375,-55.6640625,-2.44140625,-227.05078125
1755739235.6547892,-160.15625,-53.22265625,-9.27734375,-195.80078125
1755739235.658548,-136.71875,-48.33984375,0.0,-177.734375
1755739235.6623068,-162.109375,-84.9609375,-5.859375,-178.22265625
1755739235.6660657,-135.25390625,-98.14453125,-23.92578125,-155.2734375
1755739235.6698244,-110.3515625,-66.89453125,-26.3671875,-148.92578125
1755739235.6735833,-123.53515625,-41.50390625,-15.625,-129.8828125
1755739235.6773298,-97.65625,-54.19921875,-12.6953125,-112.79296875
1755739235.6810763,-75.1953125,-76.171875,-11.71875,-108.3984375
1755739235.6848228,-60.546875,-81.0546875,-19.04296875,-87.890625
1755739235.6885693,-31.25,-63.4765625,-14.16015625,-60.546875
1755739235.6923158,-41.9921875,-46.38671875,-14.16015625,-62.5
1755739235.696062,-50.78125,-62.5,-29.296875,-70.80078125
1755739235.6998086,-29.296875,-69.82421875,-34.66796875,-53.7109375
1755739235.703555,-22.94921875,-54.6875,-27.83203125,-50.78125
1755739235.7073016,-13.18359375,-65.4296875,-10.7421875,-36.62109375
1755739235.711048,-25.87890625,-75.68359375,-8.7890625,-51.26953125
1755739235.7147946,-26.85546875,-59.5703125,-25.87890625,-65.4296875
1755739235.7185411,11.23046875,-54.19921875,-38.0859375,-21.484375
1755739235.7234378,14.6484375,-46.875,-41.015625,10.25390625
1755739235.7283344,-1.953125,-39.0625,-9.765625,-7.32421875
1755739235.733231,14.16015625,-49.8046875,-1.953125,-13.671875
1755739235.7381277,33.69140625,-70.3125,-23.4375,-1.953125
1755739235.7430243,23.92578125,-80.56640625,-31.73828125,11.23046875
1755739235.747921,11.71875,-78.125,-40.52734375,6.34765625
1755739235.7528176,-15.13671875,-82.03125,-40.0390625,-25.87890625
1755739235.7577145,11.23046875,-52.734375,-33.69140625,9.765625
1755739235.762611,48.828125,-45.8984375,-42.96875,41.9921875
1755739235.7675076,23.92578125,-53.22265625,-41.9921875,19.53125
1755739235.7724042,15.13671875,-36.1328125,-44.43359375,13.671875
1755739235.7773008,29.296875,-39.55078125,-37.109375,19.53125
1755739235.7798908,53.7109375,-58.10546875,-28.80859375,28.80859375
1755739235.7824807,42.96875,-70.80078125,-31.25,20.5078125
1755739235.785071,20.5078125,-49.8046875,-20.99609375,12.6953125
1755739235.7876608,27.34375,-43.9453125,-26.85546875,21.484375
1755739235.7902508,44.43359375,-43.45703125,-32.71484375,31.25
1755739235.7928407,44.921875,-26.85546875,-37.59765625,41.9921875
1755739235.795431,10.7421875,-38.57421875,-44.921875,16.6015625
1755739235.7980206,2.9296875,-57.12890625,-45.8984375,5.859375
1755739235.8006103,27.83203125,-81.54296875,-43.9453125,17.08984375
1755739235.8032007,29.78515625,-77.63671875,-34.66796875,1.953125
1755739235.805791,7.32421875,-56.15234375,-36.62109375,-7.8125
1755739235.8083806,-3.90625,-45.8984375,-28.3203125,-14.6484375
1755739235.8132813,19.53125,-39.0625,-21.484375,-12.20703125
1755739235.818182,35.64453125,-60.05859375,-18.5546875,-0.9765625
1755739235.8230827,18.06640625,-64.453125,-41.9921875,5.37109375
1755739235.8279834,-2.9296875,-51.26953125,-63.96484375,-11.71875
1755739235.832884,2.9296875,-33.203125,-44.43359375,-19.04296875
1755739235.8377848,11.23046875,-25.390625,-45.41015625,0.9765625
1755739235.8426857,2.9296875,-48.828125,-52.734375,0.48828125
1755739235.8475864,-15.13671875,-75.68359375,-37.109375,-24.90234375
1755739235.852487,-7.8125,-70.3125,-26.3671875,-15.625
1755739235.8573878,-4.39453125,-70.3125,-43.45703125,-14.16015625
1755739235.8622885,1.953125,-74.70703125,-46.875,-15.13671875
1755739235.8671892,-5.859375,-70.3125,-45.8984375,-15.13671875
1755739235.8709035,-40.0390625,-61.03515625,-58.10546875,-46.875
1755739235.8746183,-25.87890625,-58.10546875,-59.08203125,-51.7578125
1755739235.878333,-16.6015625,-74.70703125,-64.94140625,-39.0625
1755739235.882048,-48.828125,-60.05859375,-69.3359375,-37.109375
1755739235.8857625,-60.546875,-45.41015625,-52.24609375,-44.921875
1755739235.8894773,-31.73828125,-68.84765625,-29.78515625,-45.8984375
1755739235.8931918,-3.90625,-82.03125,-16.6015625,-17.08984375
1755739235.8969064,-1.953125,-74.21875,-40.52734375,1.953125
1755739235.9006212,-29.296875,-57.6171875,-56.15234375,-36.1328125
1755739235.9043355,-43.9453125,-44.921875,-44.43359375,-52.734375
1755739235.9080503,-29.296875,-41.015625,-40.52734375,-31.25
1755739235.911765,-21.97265625,-36.62109375,-48.828125,-36.62109375
1755739235.9156108,-40.52734375,-47.36328125,-56.640625,-41.9921875
1755739235.9194565,-41.015625,-61.5234375,-56.15234375,-41.50390625
1755739235.9233024,-28.80859375,-60.05859375,-46.38671875,-40.52734375
1755739235.927148,-28.80859375,-78.125,-41.015625,-34.1796875
1755739235.9309938,-47.8515625,-87.40234375,-54.19921875,-46.875
1755739235.9348395,-51.26953125,-52.24609375,-48.828125,-48.828125
1755739235.9386854,-23.92578125,-40.52734375,-27.83203125,-38.57421875
1755739235.942531,-25.390625,-42.48046875,-23.4375,-45.8984375
1755739235.9463768,-50.78125,-38.57421875,-32.71484375,-42.48046875
1755739235.9502225,-57.6171875,-50.78125,-36.62109375,-51.26953125
1755739235.9540684,-51.7578125,-58.59375,-49.8046875,-52.24609375
1755739235.957914,-30.76171875,-66.89453125,-65.4296875,-20.01953125
1755739235.9617271,-33.203125,-59.08203125,-78.61328125,-34.66796875
1755739235.9655404,-67.3828125,-52.734375,-68.359375,-70.3125
1755739235.9693534,-74.21875,-63.4765625,-38.57421875,-70.3125
1755739235.9731665,-51.26953125,-58.59375,-23.92578125,-63.4765625
1755739235.9769795,-50.29296875,-61.5234375,-15.13671875,-60.05859375
1755739235.9807923,-65.4296875,-74.21875,-20.99609375,-52.24609375
1755739235.9846058,-55.6640625,-56.640625,-25.87890625,-42.96875
1755739235.9884188,-43.45703125,-46.38671875,-27.83203125,-46.875
1755739235.9922318,-42.96875,-32.71484375,-42.96875,-42.96875
1755739235.996045,-59.08203125,-37.59765625,-56.640625,-56.640625
1755739235.999858,-74.70703125,-60.05859375,-57.6171875,-72.265625
1755739236.0036712,-62.01171875,-70.3125,-69.82421875,-52.24609375
1755739236.0075312,-38.0859375,-79.1015625,-69.82421875,-39.0625
1755739236.0113914,-52.734375,-72.75390625,-53.22265625,-44.43359375
1755739236.0152514,-67.87109375,-52.734375,-53.22265625,-46.38671875
1755739236.0191116,-56.640625,-55.17578125,-49.8046875,-49.31640625
1755739236.0229716,-40.52734375,-70.80078125,-46.38671875,-38.0859375
1755739236.0268316,-41.50390625,-70.80078125,-41.015625,-26.3671875
1755739236.030692,-64.94140625,-59.5703125,-41.9921875,-48.828125
1755739236.034552,-69.3359375,-38.57421875,-37.59765625,-64.94140625
1755739236.038412,-56.640625,-50.29296875,-45.41015625,-44.921875
1755739236.042272,-38.57421875,-61.5234375,-59.08203125,-22.94921875
1755739236.0461323,-59.08203125,-66.40625,-51.26953125,-50.29296875
1755739236.0499923,-66.40625,-90.33203125,-48.33984375,-57.6171875
1755739236.0536177,-40.0390625,-64.453125,-64.453125,-39.0625
1755739236.0572429,-40.0390625,-34.66796875,-69.82421875,-39.55078125
1755739236.060868,-57.6171875,-58.10546875,-55.17578125,-50.29296875
1755739236.0644932,-69.3359375,-61.03515625,-53.7109375,-63.4765625
1755739236.0681186,-50.29296875,-55.6640625,-54.6875,-49.8046875
1755739236.0717435,-32.71484375,-61.5234375,-44.43359375,-44.43359375
1755739236.075369,-56.640625,-64.94140625,-46.38671875,-57.12890625
1755739236.0789945,-83.49609375,-74.70703125,-54.19921875,-70.80078125
1755739236.0826194,-75.1953125,-62.5,-50.78125,-61.03515625
1755739236.0862446,-56.15234375,-56.15234375,-44.43359375,-47.8515625
1755739236.08987,-55.6640625,-73.2421875,-49.8046875,-57.12890625
1755739236.0934951,-90.8203125,-80.078125,-40.52734375,-65.4296875
1755739236.0972545,-94.23828125,-72.265625,-31.25,-70.80078125
1755739236.1010134,-59.08203125,-62.98828125,-59.5703125,-59.5703125
1755739236.1047726,-56.15234375,-54.6875,-59.08203125,-41.9921875
1755739236.1085317,-74.70703125,-62.01171875,-48.828125,-55.6640625
1755739236.1122909,-73.2421875,-70.3125,-47.8515625,-74.70703125
1755739236.11605,-51.26953125,-59.08203125,-41.9921875,-63.4765625
1755739236.1198092,-48.33984375,-60.05859375,-48.33984375,-49.31640625
1755739236.1235683,-57.6171875,-68.359375,-51.7578125,-54.6875
1755739236.1273274,-75.68359375,-63.4765625,-57.6171875,-76.171875
1755739236.1310866,-61.03515625,-65.91796875,-49.8046875,-74.21875
1755739236.1348455,-33.203125,-74.21875,-31.73828125,-51.26953125
1755739236.1386049,-43.45703125,-70.80078125,-44.43359375,-46.875
1755739236.1423542,-67.3828125,-69.3359375,-46.38671875,-58.10546875
1755739236.146104,-62.98828125,-62.5,-39.0625,-56.15234375
1755739236.1498532,-35.64453125,-55.17578125,-23.4375,-41.50390625
1755739236.1536026,-24.4140625,-62.98828125,-21.484375,-37.59765625
1755739236.157352,-62.01171875,-67.3828125,-26.85546875,-59.5703125
1755739236.161101,-65.4296875,-66.40625,-24.90234375,-68.84765625
1755739236.164851,-39.55078125,-63.4765625,-28.80859375,-50.29296875
1755739236.1686003,-37.59765625,-63.4765625,-29.296875,-38.57421875
1755739236.1723497,-60.05859375,-71.2890625,-51.26953125,-60.05859375
1755739236.1760993,-71.77734375,-52.734375,-54.6875,-63.4765625
1755739236.179849,-51.26953125,-46.875,-39.55078125,-46.875
1755739236.183598,-33.203125,-63.96484375,-28.80859375,-26.85546875
1755739236.188548,-37.59765625,-64.453125,-23.4375,-20.01953125
1755739236.193498,-66.40625,-55.6640625,-36.62109375,-48.828125
1755739236.198448,-59.08203125,-41.50390625,-51.7578125,-60.05859375
1755739236.203398,-40.52734375,-39.0625,-65.4296875,-42.96875
1755739236.2083478,-48.33984375,-48.33984375,-77.63671875,-39.55078125
1755739236.2132978,-65.4296875,-47.36328125,-68.84765625,-61.03515625
1755739236.218248,-51.26953125,-30.2734375,-32.71484375,-50.29296875
1755739236.2231977,-30.2734375,-26.3671875,-32.2265625,-31.73828125
1755739236.2281475,-45.41015625,-43.45703125,-49.31640625,-47.8515625
1755739236.2330978,-57.12890625,-69.82421875,-50.29296875,-76.171875
1755739236.2380476,-46.38671875,-68.84765625,-43.9453125,-64.453125
1755739236.2429976,-31.73828125,-44.921875,-51.7578125,-38.0859375
1755739236.2481692,-18.06640625,-37.109375,-64.94140625,-26.85546875
1755739236.2533407,-30.2734375,-49.8046875,-64.453125,-38.57421875
1755739236.2585125,-46.875,-37.59765625,-52.24609375,-45.8984375
1755739236.2636838,-32.71484375,-28.3203125,-43.9453125,-36.1328125
1755739236.268855,-33.69140625,-32.71484375,-47.8515625,-34.66796875
1755739236.2740269,-44.43359375,-31.73828125,-47.8515625,-35.15625
1755739236.2791984,-39.55078125,-39.55078125,-36.1328125,-37.59765625
1755739236.28437,-31.25,-67.87109375,-28.80859375,-36.1328125
1755739236.2895415,-7.8125,-62.98828125,-32.71484375,-29.78515625
1755739236.294713,-14.16015625,-45.8984375,-54.6875,-36.62109375
1755739236.2998846,-34.66796875,-42.96875,-56.15234375,-50.29296875
1755739236.305056,-39.55078125,-23.92578125,-37.109375,-59.08203125
1755739236.3098292,-25.87890625,-30.2734375,-42.48046875,-49.31640625
1755739236.3146024,-15.13671875,-50.78125,-32.2265625,-34.1796875
1755739236.3193758,-38.0859375,-66.89453125,-14.6484375,-39.55078125
1755739236.324149,-56.640625,-75.68359375,-4.8828125,-60.05859375
1755739236.328922,-58.10546875,-82.51953125,-2.44140625,-87.40234375
1755739236.3336954,-50.29296875,-58.10546875,-34.66796875,-68.84765625
1755739236.3384686,-64.94140625,-40.0390625,-51.7578125,-56.15234375
1755739236.3432417,-63.4765625,-53.7109375,-40.52734375,-63.96484375
1755739236.3480148,-32.2265625,-77.63671875,-41.50390625,-43.45703125
1755739236.352788,-32.2265625,-85.44921875,-43.45703125,-39.55078125
1755739236.357561,-50.29296875,-62.5,-37.59765625,-45.8984375
1755739236.3623345,-74.70703125,-49.31640625,-29.78515625,-62.5
1755739236.3635397,-69.82421875,-62.5,-26.85546875,-69.82421875
1755739236.364745,-41.50390625,-96.19140625,-20.5078125,-34.66796875
1755739236.36595,-42.96875,-93.26171875,-20.99609375,-18.5546875
1755739236.3671553,-62.01171875,-47.36328125,-34.66796875,-48.828125
1755739236.3683603,-69.3359375,-40.0390625,-47.36328125,-65.4296875
1755739236.3695655,-56.640625,-53.22265625,-57.12890625,-59.08203125
1755739236.370771,-51.7578125,-62.5,-49.8046875,-57.6171875
1755739236.371976,-65.4296875,-63.4765625,-19.04296875,-58.59375
1755739236.373181,-70.80078125,-73.73046875,-13.18359375,-62.98828125
1755739236.3743863,-48.33984375,-83.49609375,-22.94921875,-53.22265625
1755739236.3755918,-38.0859375,-78.61328125,-15.625,-31.73828125
1755739236.376797,-48.828125,-75.1953125,-20.01953125,-32.2265625
1755739236.3806896,-47.8515625,-70.80078125,-25.390625,-41.015625
1755739236.3845823,-39.0625,-76.171875,-23.4375,-46.38671875
1755739236.3884754,-13.18359375,-65.4296875,-17.08984375,-27.34375
1755739236.392368,-25.87890625,-43.9453125,-21.97265625,-33.203125
1755739236.3962607,-62.01171875,-46.38671875,-38.0859375,-60.05859375
1755739236.4001536,-59.08203125,-67.87109375,-33.203125,-54.19921875
1755739236.4040463,-41.015625,-57.12890625,-33.69140625,-43.9453125
1755739236.4079392,-46.875,-54.6875,-56.640625,-35.15625
1755739236.411832,-58.59375,-76.66015625,-62.5,-48.828125
1755739236.4157248,-73.73046875,-74.21875,-36.62109375,-62.98828125
1755739236.4196177,-48.33984375,-65.4296875,-18.5546875,-41.50390625
1755739236.4235103,-34.66796875,-48.33984375,-40.0390625,-43.9453125
1755739236.4272666,-60.546875,-31.73828125,-53.22265625,-47.8515625
1755739236.431023,-62.01171875,-42.48046875,-24.4140625,-56.15234375
1755739236.4347792,-61.03515625,-36.1328125,-19.04296875,-67.87109375
1755739236.4385357,-36.1328125,-32.2265625,-25.390625,-43.45703125
1755739236.4422915,-41.9921875,-60.546875,-26.85546875,-48.828125
1755739236.4460478,-70.3125,-63.96484375,-41.9921875,-65.91796875
1755739236.449804,-41.50390625,-39.55078125,-31.73828125,-36.62109375
1755739236.4535604,-4.39453125,-22.94921875,-18.06640625,-14.6484375
1755739236.4573166,-22.94921875,-11.23046875,-29.78515625,-23.92578125
1755739236.461073,-36.1328125,-12.6953125,-21.97265625,-31.25
1755739236.4648292,-36.1328125,-24.4140625,-20.01953125,-36.1328125
1755739236.4685855,-37.59765625,-47.36328125,-43.9453125,-47.36328125
1755739236.4724543,-37.59765625,-62.98828125,-43.9453125,-47.8515625
1755739236.4763236,-39.55078125,-57.12890625,-40.0390625,-36.1328125
1755739236.480193,-46.875,-49.31640625,-34.1796875,-51.26953125
1755739236.4840617,-35.64453125,-33.203125,-27.34375,-51.26953125
1755739236.4879303,-35.15625,-44.43359375,-21.97265625,-37.109375
1755739236.4917996,-50.29296875,-69.3359375,-11.71875,-43.45703125
1755739236.4956686,-57.12890625,-39.55078125,-15.625,-51.7578125
1755739236.4995377,-36.1328125,-18.06640625,-21.484375,-43.45703125
1755739236.5034063,-10.25390625,-36.62109375,-21.97265625,-32.2265625
1755739236.5072756,-26.85546875,-58.59375,-20.5078125,-42.96875
1755739236.5111446,-48.828125,-56.15234375,-20.99609375,-51.7578125
1755739236.5150137,-46.38671875,-38.57421875,-34.66796875,-48.828125
1755739236.5186477,-17.578125,-67.87109375,-44.43359375,-36.1328125
1755739236.5222816,-5.37109375,-65.4296875,-31.73828125,-32.2265625
1755739236.5259156,-45.8984375,-50.78125,-10.25390625,-54.19921875
1755739236.5295496,-59.5703125,-48.828125,-2.44140625,-53.22265625
1755739236.5331836,-21.484375,-12.20703125,8.30078125,-33.69140625
1755739236.5368176,-32.2265625,-17.578125,-15.13671875,-36.1328125
1755739236.5404515,-56.15234375,-49.31640625,-38.0859375,-47.36328125
1755739236.5440855,-46.38671875,-63.4765625,-30.76171875,-43.45703125
1755739236.5477197,-32.71484375,-68.359375,-30.2734375,-34.1796875
1755739236.5513537,-31.73828125,-76.171875,-30.76171875,-29.78515625
1755739236.5549874,-40.0390625,-69.3359375,-42.48046875,-37.59765625
1755739236.5586214,-41.015625,-54.6875,-59.08203125,-50.29296875
1755739236.5623803,-31.25,-44.43359375,-58.59375,-49.8046875
1755739236.5661397,-13.671875,-36.1328125,-46.875,-29.296875
1755739236.5698986,-25.390625,-49.8046875,-41.9921875,-28.3203125
1755739236.5736575,-32.2265625,-59.08203125,-49.8046875,-43.45703125
1755739236.5774164,-35.15625,-52.24609375,-68.359375,-44.43359375
1755739236.5811756,-55.17578125,-55.6640625,-75.68359375,-42.96875
1755739236.5849347,-36.62109375,-56.640625,-53.7109375,-26.3671875
1755739236.5886936,-46.38671875,-49.31640625,-44.43359375,-39.0625
1755739236.5924523,-46.38671875,-40.52734375,-57.12890625,-58.10546875
1755739236.5962117,-22.94921875,-52.24609375,-64.94140625,-54.6875
1755739236.5999708,-25.390625,-62.5,-62.01171875,-44.921875
1755739236.6037295,-52.24609375,-50.29296875,-60.05859375,-55.17578125
1755739236.6086092,-57.6171875,-39.0625,-46.38671875,-58.59375
1755739236.6134884,-33.203125,-39.55078125,-26.3671875,-49.31640625
1755739236.6183677,-21.484375,-35.15625,-31.73828125,-40.0390625
1755739236.6232471,-35.64453125,-49.31640625,-46.875,-38.0859375
1755739236.6281266,-56.15234375,-74.21875,-55.17578125,-61.5234375
1755739236.633006,-50.29296875,-57.6171875,-69.3359375,-65.4296875
1755739236.637885,-38.0859375,-62.01171875,-60.05859375,-43.9453125
1755739236.6427646,-41.015625,-66.89453125,-24.4140625,-46.38671875
1755739236.647644,-57.6171875,-41.50390625,-31.73828125,-69.3359375
1755739236.6525233,-65.91796875,-35.64453125,-52.24609375,-83.49609375
1755739236.6574025,-48.33984375,-57.12890625,-66.89453125,-65.91796875
1755739236.662282,-39.55078125,-62.01171875,-72.265625,-48.33984375
1755739236.666092,-68.359375,-55.6640625,-76.66015625,-75.68359375
1755739236.669902,-60.05859375,-61.03515625,-72.265625,-69.82421875
1755739236.673712,-37.109375,-57.6171875,-58.59375,-50.29296875
1755739236.677522,-38.0859375,-55.6640625,-65.4296875,-41.015625
1755739236.681332,-43.45703125,-72.75390625,-73.2421875,-32.71484375
1755739236.685142,-43.45703125,-88.37890625,-67.3828125,-32.2265625
1755739236.688952,-26.3671875,-60.05859375,-55.6640625,-30.76171875
1755739236.692762,-24.4140625,-36.1328125,-56.640625,-41.50390625
1755739236.696572,-51.7578125,-29.78515625,-51.26953125,-54.19921875
1755739236.700382,-76.171875,-53.22265625,-45.41015625,-70.3125
1755739236.7041922,-79.1015625,-83.984375,-47.8515625,-80.078125
1755739236.708002,-54.19921875,-77.1484375,-59.5703125,-58.10546875
1755739236.7118018,-43.9453125,-69.3359375,-71.2890625,-46.38671875
1755739236.7156014,-70.3125,-59.08203125,-65.91796875,-65.4296875
1755739236.7194011,-57.6171875,-65.91796875,-69.82421875,-57.6171875
1755739236.7232008,-43.9453125,-69.3359375,-78.125,-49.31640625
1755739236.7270005,-46.875,-43.9453125,-80.56640625,-46.875
1755739236.7308002,-38.57421875,-29.296875,-78.61328125,-45.8984375
1755739236.7346,-61.5234375,-48.828125,-82.03125,-65.4296875
1755739236.7383995,-53.7109375,-65.91796875,-66.40625,-63.4765625
1755739236.7421994,-28.3203125,-52.24609375,-34.66796875,-45.41015625
1755739236.745999,-52.24609375,-51.26953125,-53.22265625,-60.05859375
1755739236.7497988,-87.40234375,-69.3359375,-61.03515625,-83.984375
1755739236.7535985,-72.265625,-60.546875,-35.64453125,-80.078125
1755739236.757334,-45.41015625,-76.171875,-43.45703125,-57.6171875
1755739236.7610695,-52.734375,-85.9375,-53.22265625,-49.31640625
1755739236.764805,-70.3125,-53.7109375,-53.7109375,-69.82421875
1755739236.7685406,-55.6640625,-46.875,-61.5234375,-62.98828125
1755739236.7722762,-32.71484375,-52.24609375,-61.5234375,-34.1796875
1755739236.7760117,-35.15625,-58.10546875,-56.15234375,-26.85546875
1755739236.779747,-52.24609375,-72.265625,-68.84765625,-53.22265625
1755739236.7834826,-56.15234375,-71.77734375,-77.63671875,-63.96484375
1755739236.787218,-32.2265625,-57.6171875,-51.26953125,-44.43359375
1755739236.7909536,-36.62109375,-43.9453125,-27.34375,-35.15625
1755739236.7946892,-76.171875,-50.29296875,-43.9453125,-75.68359375
1755739236.7984247,-66.89453125,-71.77734375,-53.22265625,-87.890625
1755739236.8021915,-37.59765625,-68.84765625,-42.96875,-55.6640625
1755739236.8059587,-32.2265625,-53.22265625,-41.9921875,-40.52734375
1755739236.8097258,-49.31640625,-45.8984375,-51.26953125,-50.78125
1755739236.8134923,-62.5,-46.38671875,-60.05859375,-62.01171875
1755739236.8172596,-41.015625,-62.01171875,-59.5703125,-50.78125
1755739236.8210266,-17.08984375,-59.5703125,-57.12890625,-24.90234375
1755739236.8247936,-41.015625,-75.1953125,-67.87109375,-39.0625
1755739236.8285606,-61.5234375,-83.49609375,-58.59375,-58.59375
1755739236.8323274,-52.734375,-40.52734375,-40.52734375,-45.41015625
1755739236.8360944,-41.50390625,-31.25,-42.96875,-44.921875
1755739236.8398614,-39.0625,-55.6640625,-39.55078125,-46.38671875
1755739236.8436284,-63.96484375,-53.7109375,-43.45703125,-57.6171875
1755739236.847382,-53.7109375,-34.1796875,-51.26953125,-54.19921875
1755739236.8511355,-16.6015625,-52.24609375,-42.96875,-32.2265625
1755739236.8548894,-18.5546875,-89.35546875,-44.921875,-36.62109375
1755739236.858643,-46.38671875,-81.0546875,-58.59375,-59.5703125
1755739236.8623967,-58.59375,-51.7578125,-52.24609375,-71.2890625
1755739236.8661504,-39.55078125,-46.38671875,-47.8515625,-61.5234375
1755739236.8699038,-42.48046875,-62.98828125,-59.08203125,-54.19921875
1755739236.8736577,-70.3125,-70.80078125,-62.01171875,-52.734375
1755739236.8774111,-76.171875,-70.80078125,-53.7109375,-54.6875
1755739236.8811648,-53.22265625,-61.5234375,-51.7578125,-57.12890625
1755739236.8849185,-40.52734375,-69.3359375,-44.921875,-59.08203125
1755739236.888672,-55.17578125,-80.078125,-49.31640625,-56.15234375
1755739236.892423,-73.2421875,-72.265625,-64.453125,-63.96484375
1755739236.8961737,-59.5703125,-73.2421875,-49.31640625,-56.15234375
1755739236.8999245,-28.3203125,-67.3828125,-41.015625,-35.64453125
1755739236.9036748,-34.1796875,-76.171875,-68.84765625,-40.0390625
1755739236.9074254,-59.08203125,-82.03125,-75.68359375,-63.4765625
1755739236.9111762,-61.5234375,-61.03515625,-58.59375,-83.984375
1755739236.914927,-37.59765625,-69.3359375,-53.22265625,-67.87109375
1755739236.9186776,-30.76171875,-87.40234375,-59.5703125,-43.9453125
1755739236.922428,-58.10546875,-78.61328125,-74.21875,-62.01171875
1755739236.926179,-71.2890625,-86.42578125,-80.078125,-83.984375
1755739236.9299295,-43.9453125,-79.58984375,-59.5703125,-64.94140625
1755739236.9336803,-40.0390625,-49.31640625,-57.12890625,-62.01171875
1755739236.9375467,-68.359375,-40.52734375,-78.61328125,-83.49609375
1755739236.941413,-86.42578125,-32.71484375,-83.0078125,-95.703125
1755739236.9452794,-61.5234375,-52.24609375,-81.0546875,-71.2890625
1755739236.9491456,-24.90234375,-78.61328125,-78.125,-50.29296875
1755739236.953012,-29.296875,-83.984375,-62.5,-48.828125
1755739236.9568782,-54.6875,-70.3125,-61.5234375,-60.05859375
1755739236.9607446,-63.4765625,-59.5703125,-73.2421875,-69.3359375
1755739236.964611,-50.29296875,-78.61328125,-71.77734375,-51.7578125
1755739236.9684772,-54.19921875,-83.0078125,-71.2890625,-50.78125
1755739236.9723437,-64.94140625,-59.5703125,-61.03515625,-66.40625
1755739236.97621,-62.98828125,-40.52734375,-52.734375,-72.75390625
1755739236.9800763,-41.50390625,-42.48046875,-58.10546875,-48.33984375
1755739236.984783,-29.78515625,-62.01171875,-53.7109375,-37.109375
1755739236.9894898,-56.15234375,-64.453125,-58.10546875,-49.8046875
1755739236.9941964,-60.546875,-48.828125,-72.265625,-52.24609375
1755739236.998903,-48.828125,-59.5703125,-71.2890625,-59.5703125
1755739237.00361,-28.3203125,-68.359375,-73.2421875,-48.828125
1755739237.0083165,-25.87890625,-58.59375,-64.453125,-36.62109375
1755739237.0130231,-37.59765625,-48.828125,-50.78125,-33.69140625
1755739237.01773,-50.78125,-40.0390625,-61.5234375,-64.453125
1755739237.0224366,-65.91796875,-36.1328125,-65.91796875,-89.84375
1755739237.0271432,-67.87109375,-42.96875,-61.03515625,-61.5234375
1755739237.03185,-71.2890625,-53.7109375,-45.41015625,-49.8046875
1755739237.0365567,-64.453125,-62.01171875,-33.203125,-50.29296875
1755739237.0416598,-27.83203125,-81.0546875,-44.43359375,-41.50390625
1755739237.046763,-22.4609375,-87.890625,-52.734375,-23.92578125
1755739237.051866,-59.5703125,-81.54296875,-65.4296875,-40.52734375
1755739237.0569692,-76.66015625,-71.77734375,-67.87109375,-67.87109375
1755739237.0620725,-44.43359375,-66.40625,-63.96484375,-56.640625
1755739237.0671754,-31.25,-72.75390625,-73.2421875,-46.875
1755739237.0722787,-74.70703125,-63.4765625,-79.1015625,-62.98828125
1755739237.0773818,-89.35546875,-52.734375,-71.2890625,-86.42578125
1755739237.082485,-53.22265625,-71.77734375,-45.8984375,-66.89453125
1755739237.087588,-28.80859375,-89.84375,-30.76171875,-34.66796875
1755739237.0926912,-39.55078125,-71.77734375,-46.875,-47.36328125
1755739237.0977943,-46.38671875,-64.94140625,-65.91796875,-60.546875
1755739237.1003718,-49.31640625,-62.98828125,-74.70703125,-62.5
1755739237.1029491,-40.0390625,-73.2421875,-75.1953125,-52.734375
1755739237.1055267,-24.4140625,-93.75,-76.171875,-44.43359375
1755739237.1081042,-24.90234375,-94.23828125,-75.68359375,-54.19921875
1755739237.1106818,-34.66796875,-84.47265625,-81.54296875,-60.546875
1755739237.1132593,-30.76171875,-67.87109375,-95.703125,-58.10546875
1755739237.1158366,-21.484375,-59.08203125,-83.0078125,-50.29296875
1755739237.1184142,-30.2734375,-56.640625,-55.6640625,-61.5234375
1755739237.1209917,-47.8515625,-63.4765625,-59.08203125,-73.2421875
1755739237.123569,-55.17578125,-63.96484375,-55.17578125,-70.80078125
1755739237.1261466,-45.41015625,-57.12890625,-56.640625,-50.78125
1755739237.128724,-41.50390625,-65.91796875,-67.3828125,-38.0859375
1755739237.1324742,-43.45703125,-61.5234375,-55.6640625,-52.734375
1755739237.136224,-43.9453125,-62.5,-61.03515625,-42.48046875
1755739237.139974,-33.69140625,-58.59375,-97.65625,-30.76171875
1755739237.143724,-35.15625,-73.2421875,-115.234375,-37.109375
1755739237.147474,-49.8046875,-79.58984375,-81.54296875,-55.6640625
1755739237.151224,-46.875,-44.921875,-45.41015625,-46.875
1755739237.154974,-35.64453125,-41.015625,-34.66796875,-36.1328125
1755739237.158724,-46.875,-48.828125,-47.36328125,-55.6640625
1755739237.162474,-45.8984375,-45.41015625,-53.7109375,-56.640625
1755739237.166224,-46.38671875,-48.828125,-34.66796875,-46.875
1755739237.169974,-42.96875,-69.82421875,-49.31640625,-38.0859375
1755739237.173724,-27.83203125,-72.75390625,-73.2421875,-33.203125
1755739237.177469,-66.40625,-71.2890625,-77.63671875,-47.8515625
1755739237.1812143,-81.0546875,-44.921875,-59.08203125,-62.01171875
1755739237.1849594,-56.15234375,-29.296875,-34.1796875,-59.08203125
1755739237.1887047,-35.64453125,-43.9453125,-29.78515625,-49.8046875
1755739237.1924498,-49.8046875,-57.12890625,-37.59765625,-56.640625
1755739237.1961951,-79.58984375,-63.4765625,-50.78125,-75.1953125
1755739237.1999402,-67.87109375,-59.5703125,-52.24609375,-76.171875
1755739237.2036853,-43.45703125,-54.19921875,-50.29296875,-64.453125
1755739237.2074306,-53.22265625,-57.6171875,-60.05859375,-57.12890625
1755739237.2111757,-64.453125,-51.7578125,-63.96484375,-60.05859375
1755739237.214921,-57.6171875,-48.828125,-54.19921875,-62.01171875
1755739237.218666,-40.52734375,-54.6875,-41.50390625,-46.38671875
1755739237.222396,-39.55078125,-59.5703125,-57.12890625,-45.8984375
1755739237.2261262,-62.01171875,-49.8046875,-56.640625,-61.5234375
1755739237.2298565,-65.91796875,-33.69140625,-49.8046875,-66.40625
1755739237.2335863,-42.96875,-50.78125,-62.01171875,-52.734375
1755739237.2373166,-30.76171875,-69.82421875,-52.734375,-42.48046875
1755739237.241047,-40.52734375,-49.8046875,-32.71484375,-52.24609375
1755739237.244777,-62.01171875,-44.43359375,-46.875,-71.77734375
1755739237.248507,-61.5234375,-58.59375,-62.01171875,-72.75390625
1755739237.252237,-44.921875,-61.03515625,-52.734375,-53.22265625
1755739237.2559671,-47.36328125,-63.4765625,-46.875,-61.5234375
1755739237.2596974,-58.59375,-62.98828125,-62.01171875,-77.63671875
1755739237.2634275,-64.94140625,-59.5703125,-69.3359375,-83.49609375
1755739237.267197,-43.9453125,-62.98828125,-64.453125,-63.4765625
1755739237.270966,-24.4140625,-62.01171875,-69.3359375,-48.828125
1755739237.2747357,-29.296875,-68.84765625,-60.05859375,-55.17578125
1755739237.2785046,-47.8515625,-49.31640625,-58.10546875,-62.01171875
1755739237.2822738,-45.8984375,-34.1796875,-73.73046875,-63.4765625
1755739237.2860432,-38.0859375,-47.36328125,-74.21875,-56.640625
1755739237.2898126,-58.59375,-41.50390625,-76.171875,-67.3828125
1755739237.2935815,-66.89453125,-51.7578125,-77.63671875,-75.1953125
1755739237.297351,-35.15625,-76.171875,-61.03515625,-53.7109375
1755739237.3011203,-26.85546875,-78.61328125,-40.0390625,-50.78125
1755739237.3048897,-42.48046875,-58.10546875,-41.50390625,-63.4765625
1755739237.3086588,-51.7578125,-43.9453125,-52.734375,-72.75390625
1755739237.3124094,-51.7578125,-53.22265625,-65.4296875,-66.40625
1755739237.3161595,-21.97265625,-53.7109375,-64.453125,-34.66796875
1755739237.3199103,-18.5546875,-42.48046875,-40.52734375,-22.4609375
1755739237.3236606,-44.921875,-37.109375,-40.0390625,-42.96875
1755739237.3274112,-40.52734375,-40.52734375,-33.69140625,-50.29296875
1755739237.3311615,-17.578125,-42.96875,-28.80859375,-41.50390625
1755739237.334912,-21.97265625,-42.48046875,-47.8515625,-30.2734375
1755739237.3386626,-65.4296875,-45.41015625,-57.12890625,-46.875
1755739237.342413,-62.5,-52.734375,-62.5,-60.05859375
1755739237.3461635,-19.53125,-47.8515625,-69.82421875,-23.92578125
1755739237.3499138,-29.296875,-27.83203125,-70.3125,-32.2265625
1755739237.3536644,-54.6875,-32.2265625,-62.98828125,-69.82421875
1755739237.3574843,-60.05859375,-26.85546875,-53.7109375,-86.9140625
1755739237.3613043,-50.78125,-9.765625,-50.78125,-72.75390625
1755739237.3651245,-35.64453125,-17.578125,-56.15234375,-58.10546875
1755739237.3689444,-54.19921875,-33.203125,-74.70703125,-74.21875
1755739237.3727643,-69.82421875,-27.83203125,-82.03125,-94.23828125
1755739237.3765843,-67.87109375,-22.4609375,-79.58984375,-87.40234375
1755739237.3804045,-57.6171875,-38.57421875,-85.9375,-79.1015625
1755739237.3842244,-63.4765625,-54.19921875,-87.890625,-88.8671875
1755739237.3880444,-80.56640625,-42.96875,-86.42578125,-93.26171875
1755739237.3918643,-64.94140625,-30.76171875,-88.8671875,-83.984375
1755739237.3956845,-45.8984375,-41.015625,-88.8671875,-66.40625
1755739237.3995044,-36.62109375,-27.34375,-80.56640625,-58.59375
1755739237.4055126,-40.0390625,-2.44140625,-73.73046875,-62.98828125
1755739237.411521,-49.31640625,-13.671875,-70.80078125,-63.4765625
1755739237.417529,-24.90234375,-26.85546875,-74.70703125,-38.0859375
1755739237.4235373,-18.06640625,-25.87890625,-88.8671875,-38.57421875
1755739237.4295454,-35.15625,-25.87890625,-84.9609375,-58.59375
1755739237.4355536,-56.15234375,-33.203125,-68.84765625,-67.87109375
1755739237.441562,-52.24609375,-34.1796875,-66.40625,-64.453125
1755739237.44757,-41.50390625,-41.015625,-74.70703125,-71.77734375
1755739237.4535782,-51.7578125,-42.96875,-69.3359375,-64.94140625
1755739237.4595866,-54.6875,-6.8359375,-60.05859375,-59.5703125
1755739237.4655948,-41.9921875,3.41796875,-68.84765625,-54.6875
1755739237.471603,-26.3671875,-20.5078125,-71.2890625,-46.875
1755739237.4742565,-26.85546875,-27.83203125,-65.4296875,-56.15234375
1755739237.47691,-47.36328125,-27.34375,-66.40625,-63.4765625
1755739237.479564,-49.31640625,-33.69140625,-60.546875,-62.98828125
1755739237.4822176,-26.85546875,-38.57421875,-53.7109375,-55.17578125
1755739237.4848711,-22.4609375,-44.43359375,-63.96484375,-59.5703125
1755739237.487525,-33.69140625,-44.921875,-72.265625,-52.734375
1755739237.4901786,-59.08203125,-29.296875,-63.4765625,-61.5234375
1755739237.4928322,-53.22265625,-36.1328125,-55.17578125,-71.2890625
1755739237.4954858,-34.66796875,-37.109375,-49.8046875,-64.453125
1755739237.4981394,-49.8046875,-18.5546875,-51.7578125,-62.98828125
1755739237.5007932,-53.22265625,-32.71484375,-67.3828125,-68.84765625
1755739237.5034468,-25.87890625,-37.59765625,-77.63671875,-50.78125
1755739237.5084476,-13.671875,-45.41015625,-78.61328125,-29.296875
1755739237.5134485,-30.76171875,-47.36328125,-80.56640625,-43.45703125
1755739237.5184493,-40.0390625,-46.875,-74.70703125,-54.6875
1755739237.52345,-40.52734375,-50.78125,-65.91796875,-54.19921875
1755739237.528451,-26.3671875,-42.96875,-66.40625,-45.41015625
1755739237.5334518,-22.94921875,-39.55078125,-68.84765625,-32.71484375
1755739237.5384526,-39.0625,-33.203125,-63.4765625,-50.29296875
1755739237.5434537,-46.38671875,-31.25,-57.6171875,-61.03515625
1755739237.5484543,-29.78515625,-42.48046875,-58.59375,-45.41015625
1755739237.553455,-26.85546875,-57.6171875,-70.80078125,-34.1796875
1755739237.558456,-49.31640625,-48.33984375,-71.77734375,-50.29296875
1755739237.5634568,-57.12890625,-45.41015625,-64.453125,-68.359375
1755739237.5672123,-43.9453125,-46.875,-61.03515625,-56.640625
1755739237.570968,-31.25,-37.59765625,-57.12890625,-39.55078125
1755739237.5747232,-44.921875,-31.25,-52.734375,-44.921875
1755739237.5784788,-63.96484375,-37.109375,-42.48046875,-76.66015625
1755739237.5822344,-57.12890625,-48.828125,-44.43359375,-71.77734375
1755739237.58599,-41.015625,-41.9921875,-41.50390625,-51.26953125
1755739237.5897455,-37.59765625,-51.7578125,-36.62109375,-48.828125
1755739237.593501,-45.41015625,-59.5703125,-40.0390625,-41.50390625
1755739237.597257,-35.15625,-52.24609375,-70.80078125,-32.71484375
1755739237.601012,-25.87890625,-50.78125,-81.54296875,-34.1796875
1755739237.6047676,-27.34375,-39.0625,-54.19921875,-32.71484375
1755739237.6085231,-50.78125,-40.52734375,-45.8984375,-45.8984375
1755739237.6135163,-62.98828125,-48.828125,-52.24609375,-55.6640625
1755739237.6185093,-42.48046875,-58.59375,-52.734375,-45.41015625
1755739237.6235025,-31.25,-59.5703125,-50.78125,-37.109375
1755739237.6284957,-41.50390625,-38.0859375,-68.359375,-36.1328125
1755739237.633489,-56.640625,-42.96875,-72.265625,-51.7578125
1755739237.6384816,-53.7109375,-59.08203125,-55.6640625,-56.15234375
1755739237.6434748,-43.9453125,-45.41015625,-55.17578125,-46.875
1755739237.648468,-57.12890625,-55.17578125,-62.5,-53.22265625
1755739237.653461,-62.01171875,-60.05859375,-54.6875,-62.01171875
1755739237.6584542,-31.25,-54.6875,-46.875,-42.96875
1755739237.6634471,-16.11328125,-70.3125,-57.12890625,-36.1328125
1755739237.6684403,-38.0859375,-69.82421875,-71.2890625,-43.9453125
1755739237.669708,-36.62109375,-71.2890625,-71.77734375,-34.66796875
1755739237.6709757,-20.01953125,-40.0390625,-64.453125,-34.1796875
1755739237.672243,-31.25,-25.390625,-64.94140625,-53.7109375
1755739237.6735108,-45.41015625,-51.7578125,-64.94140625,-57.6171875
1755739237.6747785,-62.5,-54.19921875,-64.453125,-64.453125
1755739237.676046,-75.1953125,-73.73046875,-67.87109375,-83.984375
1755739237.6773136,-58.59375,-75.68359375,-77.1484375,-73.2421875
1755739237.6785812,-39.0625,-59.5703125,-102.05078125,-63.4765625
1755739237.679849,-50.78125,-59.08203125,-108.3984375,-75.68359375
1755739237.6811166,-56.640625,-65.91796875,-85.9375,-78.61328125
1755739237.682384,-36.62109375,-105.46875,-84.47265625,-61.03515625
1755739237.6836517,-13.18359375,-83.984375,-83.0078125,-39.0625
1755739237.6873417,-32.71484375,-36.62109375,-83.0078125,-53.22265625
1755739237.6910317,-66.89453125,-39.55078125,-81.0546875,-69.3359375
1755739237.6947212,-49.8046875,-50.29296875,-59.08203125,-63.4765625
1755739237.6984112,-27.83203125,-55.17578125,-67.3828125,-49.31640625
1755739237.702101,-41.50390625,-49.31640625,-88.37890625,-42.96875
1755739237.705791,-50.29296875,-62.01171875,-101.5625,-49.8046875
1755739237.7094808,-38.57421875,-83.984375,-101.5625,-45.8984375
1755739237.7131703,-33.69140625,-79.58984375,-96.6796875,-46.875
1755739237.7168603,-41.9921875,-69.82421875,-115.234375,-57.12890625
1755739237.7205503,-56.640625,-73.73046875,-114.2578125,-54.19921875
1755739237.7242403,-50.29296875,-64.453125,-100.5859375,-52.24609375
1755739237.72793,-37.109375,-51.7578125,-98.14453125,-55.17578125
1755739237.7328632,-29.78515625,-47.36328125,-103.515625,-48.33984375
1755739237.7377963,-45.8984375,-61.03515625,-103.515625,-62.98828125
1755739237.7427294,-62.01171875,-75.1953125,-106.4453125,-79.1015625
1755739237.7476623,-52.24609375,-57.6171875,-123.53515625,-55.6640625
1755739237.7525957,-42.48046875,-55.17578125,-124.0234375,-40.0390625
1755739237.7575288,-46.875,-66.40625,-117.1875,-46.38671875
1755739237.762462,-59.08203125,-77.1484375,-114.74609375,-59.5703125
1755739237.767395,-67.87109375,-75.1953125,-124.0234375,-74.70703125
1755739237.772328,-49.31640625,-36.62109375,-133.30078125,-65.4296875
1755739237.7772613,-48.828125,-33.203125,-122.55859375,-40.0390625
1755739237.7821944,-64.453125,-70.3125,-116.2109375,-49.31640625
1755739237.7871275,-51.26953125,-71.2890625,-117.1875,-62.98828125
1755739237.7920744,-21.97265625,-56.15234375,-118.1640625,-39.55078125
1755739237.7970216,-21.97265625,-68.359375,-132.8125,-25.87890625
1755739237.8019686,-50.78125,-60.546875,-136.23046875,-53.22265625
1755739237.8069158,-67.3828125,-33.69140625,-125.0,-67.3828125
1755739237.8118627,-65.4296875,-41.50390625,-130.37109375,-55.6640625
1755739237.8168097,-43.9453125,-57.12890625,-129.8828125,-41.015625
1755739237.8217568,-45.8984375,-59.08203125,-121.58203125,-42.48046875
1755739237.8267038,-70.80078125,-64.453125,-131.8359375,-65.4296875
1755739237.831651,-52.734375,-74.70703125,-144.53125,-59.5703125
1755739237.836598,-25.390625,-94.7265625,-146.484375,-41.50390625
1755739237.841545,-36.62109375,-96.6796875,-152.34375,-48.828125
1755739237.846492,-55.6640625,-64.94140625,-149.4140625,-61.03515625
1755739237.8491778,-52.24609375,-47.8515625,-144.53125,-57.12890625
1755739237.851864,-36.1328125,-49.8046875,-149.90234375,-47.36328125
1755739237.85455,-47.36328125,-47.8515625,-145.01953125,-57.12890625
1755739237.8572357,-74.21875,-53.7109375,-129.8828125,-71.2890625
1755739237.8599217,-68.359375,-59.08203125,-124.0234375,-69.3359375
1755739237.8626077,-39.0625,-70.80078125,-120.60546875,-51.26953125
1755739237.8652935,-24.4140625,-81.0546875,-115.72265625,-34.1796875
1755739237.8679793,-51.26953125,-79.58984375,-113.76953125,-47.8515625
1755739237.870665,-56.15234375,-78.125,-120.1171875,-59.5703125
1755739237.873351,-40.52734375,-84.9609375,-133.7890625,-53.7109375
1755739237.8760371,-35.15625,-78.125,-132.8125,-54.19921875
1755739237.878723,-49.8046875,-63.4765625,-129.39453125,-64.94140625
1755739237.8824255,-75.68359375,-71.77734375,-149.4140625,-69.3359375
1755739237.8861284,-63.4765625,-70.3125,-153.80859375,-62.5
1755739237.889831,-22.4609375,-56.15234375,-120.60546875,-41.015625
1755739237.8935337,-30.76171875,-50.78125,-92.28515625,-40.52734375
1755739237.8972363,-82.51953125,-49.8046875,-100.09765625,-66.40625
1755739237.900939,-59.08203125,-57.6171875,-110.83984375,-61.03515625
1755739237.904642,-28.3203125,-62.98828125,-113.28125,-55.17578125
1755739237.9083445,-40.52734375,-73.2421875,-127.9296875,-47.8515625
1755739237.9120471,-46.38671875,-71.77734375,-140.13671875,-48.828125
1755739237.91575,-28.80859375,-66.89453125,-150.87890625,-43.45703125
1755739237.919453,-10.7421875,-68.84765625,-152.83203125,-27.34375
1755739237.9231553,-35.15625,-54.6875,-136.71875,-45.41015625
1755739237.9270675,-52.734375,-29.296875,-125.48828125,-52.734375
1755739237.9309795,-56.640625,-32.2265625,-115.72265625,-42.48046875
1755739237.9348922,-52.24609375,-71.77734375,-112.3046875,-54.19921875
1755739237.9388044,-38.0859375,-68.359375,-112.3046875,-55.6640625
1755739237.9427166,-57.6171875,-59.08203125,-109.375,-56.640625
1755739237.9466288,-75.1953125,-68.84765625,-111.328125,-78.125
1755739237.950541,-60.05859375,-60.05859375,-111.328125,-69.82421875
1755739237.9544532,-46.875,-68.84765625,-125.48828125,-58.10546875
1755739237.9583654,-35.15625,-84.9609375,-138.671875,-48.828125
1755739237.962278,-37.109375,-91.796875,-119.62890625,-44.921875
1755739237.96619,-50.78125,-85.9375,-106.4453125,-61.5234375
1755739237.9701023,-41.9921875,-61.5234375,-123.046875,-55.6640625
1755739237.9749668,-31.25,-55.6640625,-114.2578125,-36.1328125
1755739237.9798312,-43.45703125,-44.921875,-98.14453125,-47.8515625
1755739237.984696,-73.2421875,-39.55078125,-108.3984375,-76.66015625
1755739237.9895604,-56.15234375,-56.15234375,-109.86328125,-62.01171875
1755739237.9944248,-34.66796875,-47.36328125,-92.7734375,-38.0859375
1755739237.9992895,-51.7578125,-53.22265625,-102.05078125,-45.41015625
1755739238.004154,-55.17578125,-58.59375,-121.58203125,-70.3125
1755739238.0090184,-35.64453125,-46.38671875,-118.65234375,-51.26953125
1755739238.0138829,-23.4375,-58.10546875,-109.86328125,-18.06640625
1755739238.018747,-30.76171875,-66.89453125,-93.26171875,-36.62109375
1755739238.023612,-48.33984375,-47.36328125,-70.3125,-48.33984375
1755739238.0284765,-48.828125,-33.203125,-63.4765625,-46.875
1755739238.0309954,-25.87890625,-41.50390625,-70.3125,-37.59765625
1755739238.0335145,-26.3671875,-42.48046875,-75.68359375,-27.34375
1755739238.0360332,-44.43359375,-31.73828125,-85.44921875,-45.41015625
1755739238.038552,-43.9453125,-35.64453125,-84.9609375,-58.59375
1755739238.041071,-23.92578125,-52.24609375,-75.1953125,-34.66796875
1755739238.0435898,-25.87890625,-66.89453125,-82.03125,-29.78515625
1755739238.0461087,-50.78125,-59.08203125,-72.75390625,-45.41015625
1755739238.0486276,-63.4765625,-37.109375,-57.12890625,-57.12890625
1755739238.0511465,-49.8046875,-50.29296875,-64.94140625,-58.10546875
1755739238.0536654,-32.2265625,-68.359375,-61.03515625,-50.29296875
1755739238.0561843,-42.48046875,-55.6640625,-56.640625,-45.41015625
1755739238.0587032,-57.6171875,-40.0390625,-76.171875,-53.22265625
1755739238.0624566,-49.8046875,-20.99609375,-85.9375,-54.19921875
1755739238.06621,-36.1328125,-15.625,-85.44921875,-46.875
1755739238.0699637,-35.64453125,-27.34375,-79.58984375,-48.828125
1755739238.073717,-42.96875,-44.921875,-76.66015625,-62.5
1755739238.0774703,-48.828125,-58.59375,-74.21875,-65.91796875
1755739238.081224,-53.22265625,-62.01171875,-67.3828125,-53.7109375
1755739238.0849774,-48.33984375,-93.26171875,-63.96484375,-45.8984375
1755739238.0887308,-54.19921875,-88.8671875,-60.546875,-52.24609375
1755739238.0924845,-61.5234375,-28.3203125,-62.5,-67.87109375
1755739238.096238,-47.8515625,-2.9296875,-76.171875,-62.98828125
1755739238.099991,-23.92578125,-12.20703125,-76.171875,-40.52734375
1755739238.1037447,-31.73828125,-20.99609375,-72.75390625,-50.29296875
1755739238.1085696,-46.875,-38.0859375,-78.61328125,-64.94140625
1755739238.1133947,-38.0859375,-45.8984375,-71.2890625,-49.8046875
1755739238.1182196,-31.25,-53.22265625,-64.453125,-48.33984375
1755739238.1230445,-43.45703125,-61.5234375,-63.96484375,-58.10546875
1755739238.1278694,-57.12890625,-48.33984375,-51.26953125,-64.94140625
1755739238.1326942,-44.43359375,-40.52734375,-57.6171875,-62.01171875
1755739238.1375194,-28.80859375,-36.1328125,-76.66015625,-51.26953125
1755739238.1423442,-39.0625,-35.15625,-81.54296875,-46.875
1755739238.147169,-53.7109375,-34.1796875,-91.30859375,-67.87109375
1755739238.1519942,-65.91796875,-46.38671875,-97.65625,-89.35546875
1755739238.156819,-50.78125,-42.96875,-87.40234375,-68.359375
1755739238.161644,-38.0859375,-39.55078125,-84.47265625,-48.33984375
1755739238.1656797,-46.38671875,-63.96484375,-92.28515625,-51.7578125
1755739238.169715,-53.7109375,-52.24609375,-91.30859375,-59.08203125
1755739238.1737504,-30.76171875,-39.0625,-69.82421875,-44.43359375
1755739238.1777856,-20.5078125,-63.4765625,-67.3828125,-47.36328125
1755739238.181821,-54.19921875,-62.98828125,-92.7734375,-66.40625
1755739238.1858566,-66.89453125,-52.734375,-95.703125,-72.265625
1755739238.189892,-50.29296875,-54.19921875,-103.02734375,-71.77734375
1755739238.1939275,-33.203125,-60.546875,-106.4453125,-57.6171875
1755739238.1979628,-35.15625,-56.15234375,-89.84375,-56.15234375
1755739238.2019982,-39.0625,-52.24609375,-78.61328125,-63.4765625
1755739238.2060337,-46.38671875,-49.8046875,-79.1015625,-48.33984375
1755739238.2100692,-29.78515625,-40.0390625,-81.0546875,-27.34375
1755739238.2136834,-12.20703125,-57.12890625,-85.9375,-24.90234375
1755739238.2172976,-44.43359375,-65.91796875,-90.8203125,-43.45703125
1755739238.220912,-63.96484375,-56.15234375,-88.8671875,-60.05859375
1755739238.2245262,-43.9453125,-48.828125,-109.375,-45.8984375
1755739238.2281404,-29.296875,-51.26953125,-107.91015625,-21.97265625
1755739238.2317543,-46.875,-78.61328125,-79.1015625,-33.69140625
1755739238.2353687,-58.10546875,-67.87109375,-71.77734375,-51.7578125
1755739238.238983,-31.73828125,-32.71484375,-81.54296875,-44.43359375
1755739238.242597,-24.4140625,-20.5078125,-88.8671875,-46.875
1755739238.2462115,-53.22265625,-43.9453125,-85.44921875,-47.8515625
1755739238.2498257,-69.82421875,-54.6875,-86.9140625,-47.36328125
1755739238.25344,-47.36328125,-39.55078125,-82.03125,-41.9921875
1755739238.2571647,-26.85546875,-29.78515625,-83.984375,-28.80859375
1755739238.2608895,-29.296875,-73.73046875,-83.0078125,-27.83203125
1755739238.2646146,-39.0625,-107.91015625,-78.61328125,-49.8046875
1755739238.2683394,-42.48046875,-61.03515625,-80.078125,-45.8984375
1755739238.2720642,-42.48046875,-36.62109375,-83.49609375,-41.50390625
1755739238.2757893,-46.875,-43.45703125,-88.37890625,-47.36328125
1755739238.279514,-72.265625,-65.91796875,-84.9609375,-64.453125
1755739238.283239,-83.49609375,-73.73046875,-78.125,-80.56640625
1755739238.2869637,-54.6875,-68.359375,-89.35546875,-66.89453125
1755739238.2906885,-49.8046875,-82.51953125,-91.796875,-49.31640625
1755739238.2944136,-48.33984375,-83.984375,-64.94140625,-44.43359375
1755739238.2981384,-51.26953125,-61.03515625,-47.36328125,-48.33984375
1755739238.3019006,-52.734375,-42.48046875,-55.6640625,-51.7578125
1755739238.3056626,-41.50390625,-42.48046875,-68.359375,-50.29296875
1755739238.3094249,-61.5234375,-72.75390625,-70.80078125,-59.5703125
1755739238.3131871,-68.84765625,-69.3359375,-74.21875,-65.91796875
1755739238.3169491,-62.01171875,-64.94140625,-81.54296875,-68.84765625
1755739238.3207114,-55.6640625,-71.77734375,-72.75390625,-68.359375
1755739238.3244736,-61.03515625,-44.921875,-62.98828125,-64.453125
1755739238.3282356,-74.70703125,-32.2265625,-74.70703125,-68.84765625
1755739238.331998,-67.3828125,-34.66796875,-86.42578125,-62.01171875
1755739238.33576,-63.4765625,-34.66796875,-71.2890625,-62.01171875
1755739238.339522,-57.12890625,-40.0390625,-55.17578125,-60.05859375
1755739238.3432844,-58.10546875,-57.12890625,-50.78125,-58.59375
1755739238.3470254,-83.49609375,-67.3828125,-73.73046875,-82.03125
1755739238.3507664,-98.6328125,-37.109375,-86.42578125,-108.3984375
1755739238.3545074,-97.16796875,-42.96875,-75.1953125,-104.00390625
1755739238.3582487,-130.859375,-62.5,-78.61328125,-129.8828125
1755739238.3619895,-163.57421875,-47.36328125,-74.70703125,-179.19921875
1755739238.3657308,-166.9921875,-61.5234375,-72.75390625,-189.94140625
1755739238.3694718,-180.6640625,-73.2421875,-75.68359375,-196.2890625
1755739238.3732128,-213.8671875,-44.43359375,-75.1953125,-214.35546875
1755739238.376954,-249.0234375,-20.99609375,-77.1484375,-242.67578125
1755739238.380695,-261.71875,-22.4609375,-71.2890625,-267.08984375
1755739238.384436,-252.9296875,-41.015625,-62.01171875,-265.625
1755739238.3881772,-265.625,-57.12890625,-48.33984375,-270.99609375
1755739238.393114,-286.62109375,-50.78125,-34.66796875,-288.57421875
1755739238.3980503,-280.76171875,-39.0625,-39.0625,-293.45703125
1755739238.4029872,-263.18359375,-41.015625,-39.55078125,-275.390625
1755739238.407924,-260.7421875,-45.8984375,-33.203125,-261.71875
1755739238.4128606,-267.578125,-28.80859375,-40.52734375,-277.34375
1755739238.417797,-272.94921875,-43.9453125,-40.0390625,-285.15625
1755739238.4227338,-239.2578125,-68.359375,-33.203125,-245.60546875
1755739238.4276705,-192.87109375,-57.12890625,-36.1328125,-204.1015625
1755739238.4326072,-211.42578125,-46.875,-37.59765625,-226.07421875
1755739238.437544,-213.8671875,-58.59375,-43.45703125,-236.81640625
1755739238.4424806,-179.6875,-60.546875,-38.0859375,-190.91796875
1755739238.4474173,-164.0625,-50.78125,-26.85546875,-165.52734375
1755739238.4525142,-169.43359375,-69.3359375,-20.99609375,-152.83203125
1755739238.457611,-164.0625,-62.5,-21.97265625,-155.2734375
1755739238.462708,-145.01953125,-41.015625,-51.7578125,-164.0625
1755739238.467805,-119.62890625,-36.1328125,-63.96484375,-127.44140625
1755739238.4729018,-117.1875,-47.8515625,-42.96875,-114.74609375
1755739238.4779987,-118.65234375,-60.546875,-38.0859375,-122.55859375
1755739238.483096,-97.65625,-74.21875,-40.52734375,-102.5390625
1755739238.4881928,-68.359375,-72.265625,-43.45703125,-71.2890625
1755739238.4932897,-53.7109375,-43.45703125,-45.41015625,-64.453125
1755739238.4983866,-67.3828125,-40.0390625,-34.1796875,-77.1484375
1755739238.5034835,-76.66015625,-65.91796875,-41.015625,-85.44921875
1755739238.5085804,-57.12890625,-70.3125,-53.7109375,-59.5703125
1755739238.5122204,-23.4375,-59.08203125,-46.875,-41.015625
1755739238.5158603,-31.25,-56.15234375,-46.38671875,-50.78125
1755739238.5195005,-44.43359375,-55.6640625,-51.26953125,-62.5
1755739238.52314,-36.62109375,-89.35546875,-67.3828125,-54.19921875
1755739238.52678,-19.04296875,-84.9609375,-84.9609375,-32.2265625
1755739238.5304198,-11.23046875,-42.48046875,-62.98828125,-29.296875
1755739238.5340598,-34.66796875,-50.78125,-42.96875,-42.48046875
1755739238.5376997,-22.4609375,-59.5703125,-38.57421875,-33.203125
1755739238.5413394,1.46484375,-52.734375,-37.59765625,-12.20703125
1755739238.544979,-4.8828125,-44.921875,-43.45703125,0.9765625
1755739238.5486193,-13.671875,-59.5703125,-56.15234375,-2.44140625
1755739238.5522592,-1.46484375,-54.6875,-60.05859375,-8.30078125
1755739238.554824,25.390625,-31.25,-44.43359375,7.32421875
1755739238.5573893,31.25,-47.36328125,-53.7109375,12.20703125
1755739238.5599542,17.08984375,-80.56640625,-86.42578125,3.90625
1755739238.562519,4.8828125,-86.42578125,-89.84375,0.9765625
1755739238.565084,18.06640625,-69.3359375,-55.6640625,16.11328125
1755739238.567649,28.80859375,-58.10546875,-47.8515625,19.53125
1755739238.570214,17.578125,-59.5703125,-43.45703125,9.27734375
1755739238.572779,22.94921875,-63.4765625,-27.83203125,15.625
1755739238.5753438,33.203125,-52.24609375,-40.0390625,14.16015625
1755739238.577909,33.203125,-38.57421875,-53.7109375,11.71875
1755739238.580474,31.73828125,-45.41015625,-53.7109375,18.5546875
1755739238.5830388,12.6953125,-59.08203125,-57.6171875,11.71875
1755739238.5868375,10.25390625,-60.546875,-64.94140625,10.25390625
1755739238.590636,31.73828125,-56.640625,-79.58984375,32.71484375
1755739238.5944347,40.52734375,-71.2890625,-80.078125,47.36328125
1755739238.5982332,21.484375,-82.51953125,-44.921875,16.6015625
1755739238.602032,18.06640625,-87.890625,-25.390625,9.765625
1755739238.605831,42.48046875,-71.77734375,-32.2265625,34.1796875
1755739238.6096292,40.52734375,-43.45703125,-61.5234375,41.9921875
1755739238.613428,23.4375,-61.03515625,-72.265625,22.4609375
1755739238.6172264,10.25390625,-76.171875,-50.29296875,2.9296875
1755739238.621025,29.78515625,-66.89453125,-42.96875,21.97265625
1755739238.6248236,43.9453125,-75.68359375,-41.015625,29.78515625
1755739238.6286223,22.94921875,-72.265625,-43.9453125,19.04296875
1755739238.6324277,16.11328125,-56.15234375,-68.359375,14.6484375
1755739238.6362329,24.90234375,-69.3359375,-69.82421875,7.32421875
1755739238.640038,29.78515625,-88.37890625,-46.38671875,1.953125
1755739238.6438434,24.4140625,-70.3125,-26.85546875,19.04296875
1755739238.6476486,9.27734375,-75.1953125,-31.73828125,14.6484375
1755739238.651454,11.71875,-67.3828125,-41.9921875,-1.46484375
1755739238.6552591,28.80859375,-45.8984375,-47.8515625,0.48828125
1755739238.6590643,24.4140625,-48.828125,-40.0390625,8.7890625
1755739238.6628697,-2.9296875,-73.73046875,-38.57421875,4.39453125
1755739238.6666749,-1.953125,-74.70703125,-50.29296875,8.7890625
1755739238.6704805,24.90234375,-50.29296875,-42.48046875,9.27734375
1755739238.6742854,28.3203125,-57.12890625,-24.4140625,7.32421875
1755739238.677968,11.71875,-63.96484375,-26.3671875,-3.41796875
1755739238.6816509,-18.06640625,-57.6171875,-35.15625,-23.4375
1755739238.6853335,-10.25390625,-46.38671875,-26.85546875,-15.13671875
1755739238.6890163,26.85546875,-51.26953125,-36.1328125,-2.9296875
1755739238.692699,18.5546875,-46.875,-42.48046875,-2.9296875
1755739238.6963816,6.34765625,-49.31640625,-40.52734375,-7.8125
1755739238.7000644,1.953125,-57.6171875,-42.96875,-9.27734375
1755739238.703747,-7.32421875,-57.12890625,-51.26953125,-3.41796875
1755739238.70743,8.30078125,-63.4765625,-57.6171875,-1.46484375
1755739238.7111125,6.34765625,-75.68359375,-26.85546875,-16.6015625
1755739238.7147954,-12.6953125,-75.68359375,-16.11328125,-31.73828125
1755739238.718478,-7.32421875,-52.734375,-27.34375,-24.90234375
1755739238.7222474,-0.48828125,-46.875,-28.3203125,-17.08984375
1755739238.7260163,-12.6953125,-50.78125,-29.296875,-26.85546875
1755739238.729786,-37.59765625,-60.05859375,-48.33984375,-39.55078125
1755739238.7335553,-25.87890625,-90.8203125,-56.15234375,-39.0625
1755739238.7373247,-4.39453125,-95.703125,-43.9453125,-31.25
1755739238.741094,-18.5546875,-55.6640625,-48.33984375,-32.2265625
1755739238.7448633,-32.2265625,-27.34375,-49.8046875,-39.0625
1755739238.748633,-19.53125,-31.25,-42.96875,-26.85546875
1755739238.752402,-0.9765625,-46.875,-38.0859375,-10.25390625
1755739238.7561712,-3.90625,-48.828125,-32.2265625,-13.671875
1755739238.7599406,-30.2734375,-63.4765625,-29.78515625,-36.1328125
1755739238.76371,-37.59765625,-83.0078125,-41.015625,-53.7109375
1755739238.7685435,-8.7890625,-93.26171875,-47.8515625,-29.296875
1755739238.7733774,-5.37109375,-91.30859375,-34.1796875,-24.4140625
1755739238.778211,-42.48046875,-89.35546875,-30.76171875,-45.41015625
1755739238.7830448,-65.91796875,-83.49609375,-52.734375,-61.03515625
1755739238.7878785,-39.0625,-54.6875,-52.734375,-59.5703125
1755739238.7927122,-13.671875,-37.59765625,-23.4375,-33.69140625
1755739238.7975457,-36.1328125,-59.5703125,-23.92578125,-48.33984375
1755739238.8023794,-48.828125,-70.3125,-36.62109375,-53.7109375
1755739238.807213,-14.16015625,-72.75390625,-31.25,-25.390625
1755739238.8120468,-8.30078125,-79.58984375,-35.64453125,-38.57421875
1755739238.8168805,-35.15625,-68.84765625,-42.48046875,-52.734375
1755739238.8217142,-33.69140625,-70.3125,-36.62109375,-49.31640625
1755739238.8243816,-30.76171875,-74.70703125,-41.015625,-54.19921875
1755739238.8270493,-20.99609375,-60.05859375,-61.5234375,-41.015625
1755739238.8297167,-20.01953125,-67.3828125,-67.3828125,-39.55078125
1755739238.832384,-45.8984375,-78.61328125,-48.33984375,-60.05859375
1755739238.8350515,-45.8984375,-70.3125,-27.34375,-54.19921875
1755739238.837719,-26.3671875,-94.23828125,-34.66796875,-42.48046875
1755739238.8403866,-25.390625,-83.0078125,-37.109375,-32.71484375
1755739238.843054,-34.66796875,-70.80078125,-18.5546875,-22.94921875
1755739238.8457215,-31.25,-91.796875,-14.16015625,-40.52734375
1755739238.8483891,-28.3203125,-72.265625,-24.4140625,-50.29296875
1755739238.8510566,-39.55078125,-54.6875,-37.109375,-47.36328125
1755739238.853724,-58.10546875,-58.10546875,-41.015625,-62.98828125
1755739238.8575842,-71.2890625,-70.3125,-38.0859375,-76.66015625
1755739238.8614442,-52.734375,-73.73046875,-36.1328125,-51.26953125
1755739238.8653045,-30.76171875,-76.171875,-37.59765625,-34.66796875
1755739238.8691645,-39.55078125,-86.42578125,-51.7578125,-44.921875
1755739238.8730247,-58.10546875,-86.9140625,-62.5,-55.17578125
1755739238.876885,-54.6875,-81.54296875,-48.33984375,-54.19921875
1755739238.880745,-36.1328125,-72.75390625,-56.640625,-36.62109375
1755739238.8846052,-33.69140625,-61.03515625,-65.4296875,-25.390625
1755739238.8884652,-50.29296875,-53.7109375,-53.7109375,-51.26953125
1755739238.8923254,-49.8046875,-72.75390625,-56.15234375,-62.5
1755739238.8961854,-25.87890625,-69.3359375,-41.9921875,-39.0625
1755739238.9000456,-15.625,-72.265625,-29.296875,-33.203125
1755739238.9048643,-30.76171875,-74.21875,-39.55078125,-53.7109375
1755739238.9096837,-38.0859375,-54.6875,-53.22265625,-61.03515625
1755739238.9145024,-24.4140625,-47.36328125,-51.26953125,-49.8046875
1755739238.9193213,-21.484375,-50.78125,-53.22265625,-31.73828125
1755739238.9241402,-44.43359375,-69.3359375,-63.4765625,-34.1796875
1755739238.9289594,-48.828125,-64.94140625,-60.546875,-60.546875
1755739238.9337783,-26.85546875,-56.640625,-55.17578125,-42.96875
1755739238.9385972,-17.08984375,-80.56640625,-63.4765625,-22.4609375
1755739238.943416,-26.85546875,-72.265625,-90.8203125,-26.3671875
1755739238.948235,-42.96875,-36.1328125,-75.1953125,-42.96875
1755739238.953054,-48.33984375,-20.01953125,-45.41015625,-57.6171875
1755739238.9578729,-32.71484375,-41.015625,-38.57421875,-43.45703125
1755739238.961692,-21.484375,-57.6171875,-32.2265625,-34.66796875
1755739238.9655106,-29.296875,-52.24609375,-36.1328125,-39.0625
1755739238.9693296,-33.69140625,-56.15234375,-55.17578125,-39.55078125
1755739238.9731483,-23.92578125,-72.75390625,-51.26953125,-29.78515625
1755739238.976967,-18.5546875,-66.40625,-52.24609375,-27.34375
1755739238.9807863,-36.62109375,-33.69140625,-50.29296875,-36.1328125
1755739238.984605,-59.08203125,-15.625,-55.17578125,-52.734375
1755739238.988424,-53.7109375,-13.18359375,-60.546875,-62.01171875
1755739238.9922428,-35.15625,-29.78515625,-42.48046875,-48.33984375
1755739238.9960618,-46.38671875,-75.1953125,-46.875,-46.38671875
1755739238.9998806,-56.640625,-78.61328125,-46.38671875,-68.84765625
1755739239.0036995,-42.96875,-34.1796875,-40.0390625,-60.05859375
1755739239.0074506,-26.85546875,-38.57421875,-37.59765625,-35.15625
1755739239.0112014,-23.92578125,-70.80078125,-38.0859375,-29.78515625
1755739239.0149524,-48.828125,-70.3125,-41.50390625,-46.38671875
1755739239.0187037,-67.87109375,-72.75390625,-52.734375,-68.84765625
1755739239.0224545,-42.48046875,-53.22265625,-70.80078125,-55.6640625
1755739239.0262053,-21.97265625,-12.20703125,-41.50390625,-35.64453125
1755739239.0299563,-62.01171875,-20.01953125,-14.6484375,-49.31640625
1755739239.0337071,-74.70703125,-25.87890625,-22.94921875,-67.87109375
1755739239.0374582,-39.0625,-32.71484375,-28.80859375,-49.8046875
1755739239.0412092,-24.4140625,-51.26953125,-29.78515625,-35.15625
1755739239.04496,-42.48046875,-58.59375,-45.41015625,-54.6875
1755739239.048711,-58.10546875,-66.89453125,-54.19921875,-74.70703125
1755739239.052456,-45.8984375,-74.21875,-57.6171875,-69.3359375
1755739239.056201,-24.90234375,-56.15234375,-48.828125,-46.38671875
1755739239.059946,-42.96875,-55.17578125,-53.22265625,-44.921875
1755739239.0636911,-62.98828125,-58.59375,-56.15234375,-66.40625
1755739239.067436,-42.48046875,-42.96875,-45.41015625,-62.01171875
1755739239.071181,-14.6484375,-38.57421875,-35.64453125,-37.109375
1755739239.074926,-23.92578125,-30.2734375,-35.15625,-36.62109375
1755739239.078671,-62.01171875,-37.59765625,-58.59375,-61.5234375
1755739239.082416,-59.5703125,-61.03515625,-54.19921875,-60.05859375
1755739239.0861611,-49.8046875,-69.82421875,-40.0390625,-46.875
1755739239.089906,-46.875,-59.08203125,-41.50390625,-58.59375
1755739239.093651,-60.546875,-59.08203125,-42.96875,-74.21875
1755739239.0974648,-70.80078125,-60.05859375,-36.1328125,-82.03125
1755739239.1012783,-62.5,-50.78125,-47.8515625,-77.1484375
1755739239.105092,-45.41015625,-53.22265625,-57.6171875,-53.7109375
1755739239.1089056,-39.0625,-63.96484375,-50.78125,-43.45703125
1755739239.1127193,-41.015625,-75.1953125,-52.734375,-55.17578125
1755739239.1165328,-33.203125,-55.17578125,-48.33984375,-48.33984375
1755739239.1203463,-32.2265625,-30.76171875,-44.43359375,-27.83203125
1755739239.1241603,-48.828125,-44.43359375,-48.33984375,-44.921875
1755739239.1279738,-66.40625,-40.0390625,-42.96875,-76.171875
1755739239.1317875,-63.96484375,-33.69140625,-28.3203125,-76.171875
1755739239.135601,-42.96875,-45.41015625,-24.4140625,-61.03515625
1755739239.1394148,-36.62109375,-49.31640625,-34.1796875,-50.78125
1755739239.1430993,-47.8515625,-60.546875,-48.828125,-50.29296875
1755739239.146784,-45.41015625,-63.96484375,-42.96875,-48.33984375
1755739239.1504688,-20.99609375,-56.15234375,-28.80859375,-37.109375
1755739239.154153,-8.7890625,-59.08203125,-31.73828125,-20.01953125
1755739239.157838,-40.0390625,-50.78125,-41.50390625,-31.73828125
1755739239.1615226,-51.7578125,-34.1796875,-55.17578125,-53.7109375
1755739239.1652074,-37.109375,-46.875,-67.3828125,-55.17578125
1755739239.168892,-36.1328125,-51.26953125,-63.96484375,-41.50390625
1755739239.1725764,-49.8046875,-40.0390625,-43.9453125,-40.0390625
1755739239.1762612,-55.6640625,-39.55078125,-50.29296875,-61.03515625
1755739239.179946,-46.875,-55.6640625,-71.2890625,-51.7578125
1755739239.1836305,-43.45703125,-65.91796875,-64.453125,-44.43359375
1755739239.1873925,-39.55078125,-65.4296875,-53.22265625,-45.8984375
1755739239.1911542,-41.9921875,-54.6875,-50.78125,-53.22265625
1755739239.1949162,-46.38671875,-42.48046875,-42.48046875,-54.19921875
1755739239.1986785,-29.78515625,-41.50390625,-38.57421875,-33.69140625
1755739239.20244,-31.25,-47.8515625,-54.6875,-41.015625
1755739239.206202,-44.921875,-63.96484375,-62.01171875,-56.640625
1755739239.209964,-47.8515625,-68.359375,-44.43359375,-43.9453125
1755739239.2137258,-42.96875,-55.17578125,-34.1796875,-32.71484375
1755739239.2174878,-35.15625,-42.48046875,-32.71484375,-47.36328125
1755739239.2212498,-47.36328125,-46.875,-36.1328125,-67.87109375
1755739239.2250116,-54.19921875,-49.8046875,-37.59765625,-67.87109375
1755739239.2287736,-43.45703125,-45.41015625,-47.8515625,-56.15234375
1755739239.2336037,-23.92578125,-56.15234375,-63.96484375,-44.43359375
1755739239.2384338,-20.01953125,-71.77734375,-53.7109375,-40.0390625
1755739239.243264,-47.36328125,-63.96484375,-37.59765625,-58.10546875
1755739239.248094,-52.734375,-54.19921875,-29.78515625,-74.70703125
1755739239.2529242,-19.53125,-44.43359375,-33.69140625,-49.8046875
1755739239.2577543,-31.73828125,-37.59765625,-43.9453125,-41.015625
1755739239.2625847,-45.8984375,-52.734375,-23.92578125,-60.546875
1755739239.2674148,-46.38671875,-67.87109375,-18.5546875,-64.94140625
1755739239.272245,-38.0859375,-64.94140625,-24.90234375,-48.33984375
1755739239.277075,-24.90234375,-53.22265625,-25.390625,-29.78515625
1755739239.2819052,-41.9921875,-43.45703125,-37.109375,-47.8515625
1755739239.2867353,-49.8046875,-43.9453125,-37.59765625,-57.12890625
1755739239.2905917,-34.66796875,-49.31640625,-46.875,-52.24609375
1755739239.2944484,-17.08984375,-43.9453125,-40.52734375,-38.57421875
1755739239.298305,-34.66796875,-50.29296875,-32.2265625,-47.8515625
1755739239.3021617,-39.0625,-62.98828125,-32.2265625,-63.4765625
1755739239.306018,-35.15625,-74.21875,-36.1328125,-51.7578125
1755739239.3098743,-49.31640625,-77.1484375,-57.12890625,-43.45703125
1755739239.3137312,-45.8984375,-50.29296875,-60.05859375,-46.875
1755739239.3175876,-50.78125,-31.73828125,-37.59765625,-62.01171875
1755739239.321444,-45.8984375,-48.828125,-38.0859375,-69.3359375
1755739239.3253007,-18.06640625,-57.12890625,-53.7109375,-54.19921875
1755739239.3291574,-30.2734375,-47.8515625,-59.08203125,-50.78125
1755739239.3330138,-65.91796875,-66.89453125,-42.96875,-73.2421875
1755739239.3368363,-46.38671875,-74.21875,-16.11328125,-63.96484375
1755739239.340659,-25.390625,-56.15234375,-14.16015625,-28.3203125
1755739239.3444812,-29.296875,-49.8046875,-33.203125,-20.5078125
1755739239.3483038,-37.109375,-46.875,-39.55078125,-37.59765625
1755739239.352126,-41.9921875,-69.3359375,-28.80859375,-59.5703125
1755739239.3559487,-35.64453125,-67.3828125,-12.6953125,-51.7578125
1755739239.3597713,-23.92578125,-28.3203125,-7.32421875,-24.4140625
1755739239.3635936,-29.78515625,-19.53125,-7.8125,-37.109375
1755739239.367416,-45.8984375,-39.55078125,-9.27734375,-63.96484375
1755739239.3712387,-35.64453125,-59.5703125,-18.06640625,-50.78125
1755739239.375061,-28.80859375,-63.96484375,-22.94921875,-44.43359375
1755739239.3788836,-39.0625,-42.96875,-23.92578125,-45.41015625
1755739239.3825676,-50.29296875,-45.41015625,-31.25,-55.6640625
1755739239.3862517,-45.41015625,-57.12890625,-32.71484375,-60.546875
1755739239.3899355,-39.0625,-50.78125,-25.390625,-50.29296875
1755739239.3936198,-38.0859375,-68.84765625,-21.484375,-52.734375
1755739239.3973038,-37.109375,-82.51953125,-31.25,-57.6171875
1755739239.4009876,-34.1796875,-71.2890625,-22.94921875,-49.31640625
1755739239.4046717,-26.3671875,-45.8984375,-6.34765625,-45.8984375
1755739239.4083557,-24.90234375,-19.04296875,-15.13671875,-42.96875
1755739239.4120398,-53.7109375,-19.53125,-7.8125,-40.0390625
1755739239.4157238,-68.84765625,-34.1796875,-7.8125,-57.12890625
1755739239.4194078,-35.64453125,-22.4609375,-13.671875,-56.15234375
1755739239.423092,-20.5078125,-27.34375,0.48828125,-29.78515625
1755739239.426888,-42.48046875,-48.828125,8.7890625,-32.71484375
1755739239.430684,-49.8046875,-52.24609375,0.48828125,-52.24609375
1755739239.4344802,-41.015625,-57.12890625,-7.8125,-56.640625
